* Measurement data measured by REW V5.31.1
* Source: EXCL: Micr√≥fono (Realtek(R) Audio), MICROPHONE (Volumen general), L, volume: 0,900. Timing signal peak level -11,7 dBFS, measurement signal peak level -10,9 dBFS
* Format: 512k Log Swept Sine, 1 sweep at -12,0 dBFS using an acoustic timing reference
* Dated: 14/09/2024 12:45:14 PM
* REW Settings:
*  C-weighting compensation: Off
*  Target level: 75.0 dB
* Note: Delay -0,0306 ms (-11 mm, -0,41 in) using estimated IR delay relative to Acoustic reference played from HEADPHONE R with no timing offset Clock adjustment: 18,8 ppm
* Measurement: 712 V10 mic 1
* Smoothing: None
* Frequency Step: 1/48 octave
* Start Frequency: 20.000 Hz
*
* Freq(Hz)	SPL(dB)	Phase(degrees)
20.000000	98.683	73.5535
20.299999	98.684	72.7777
20.600000	98.707	72.2665
20.900000	98.769	71.8953
21.200001	98.876	71.4608
21.400000	98.962	71.0413
21.799999	99.135	69.8701
22.000000	99.207	69.1527
22.400000	99.302	67.6416
22.700001	99.336	66.6218
23.000000	99.357	65.8130
23.299999	99.387	65.1900
23.600000	99.436	64.6573
24.000000	99.532	63.9080
24.299999	99.611	63.2280
24.700001	99.702	62.1873
25.000000	99.751	61.3953
25.400000	99.798	60.4375
25.799999	99.843	59.6193
26.200001	99.895	58.8615
26.500000	99.937	58.2814
26.900000	99.987	57.4871
27.200001	100.018	56.9115
27.600000	100.056	56.2191
28.000000	100.101	55.5992
28.500000	100.176	54.7895
29.000000	100.250	53.8234
29.500000	100.298	52.7946
30.000000	100.325	51.9002
30.400000	100.351	51.3096
30.700001	100.380	50.8925
31.100000	100.428	50.2979
31.500000	100.475	49.6410
32.000000	100.522	48.8029
32.500000	100.563	48.0351
33.000000	100.608	47.3175
33.500000	100.656	46.5778
34.000000	100.696	45.8312
34.500000	100.727	45.1626
35.000000	100.767	44.5764
35.500000	100.820	43.9574
36.000000	100.873	43.2099
36.500000	100.906	42.3715
37.000000	100.912	41.5703
37.500000	100.902	40.8973
38.200001	100.885	40.1940
38.700001	100.885	39.8308
39.500000	100.930	39.3256
40.000000	100.981	38.8803
40.599998	101.035	38.1261
41.200001	101.050	37.3640
41.799999	101.058	36.8622
42.500000	101.123	36.3236
43.099998	101.177	35.4350
43.700001	101.143	34.5537
44.400002	101.084	34.4510
45.000000	101.178	34.6041
45.500000	101.303	33.9347
46.200001	101.297	32.2014
46.799999	101.125	31.7142
47.500000	101.098	32.5341
48.200001	101.285	32.2487
48.700001	101.337	31.1473
49.400002	101.237	30.0876
50.000000	101.194	30.0178
50.799999	101.271	29.4590
51.500000	101.278	28.4100
52.200001	101.239	27.7565
53.000000	101.261	27.3761
53.799999	101.344	26.7358
54.500000	101.378	25.9248
55.200001	101.359	25.6534
56.000000	101.467	25.8892
57.000000	101.554	24.8266
58.000000	101.500	26.5844
59.000000	102.197	26.3315
60.000000	102.056	20.8550
60.799999	101.466	21.4220
61.500000	101.504	23.3630
62.200001	101.635	22.5319
63.000000	101.450	21.5465
64.000000	101.396	22.0912
65.000000	101.438	21.1995
66.000000	101.411	20.6664
67.000000	101.432	20.1001
68.000000	101.447	19.7494
69.000000	101.476	19.3466
70.000000	101.492	19.0473
71.000000	101.496	18.5140
72.000000	101.450	18.2226
73.000000	101.457	17.9551
74.000000	101.443	17.4565
75.000000	101.441	17.1199
76.199997	101.451	16.5791
77.500000	101.453	16.1439
78.800003	101.456	15.7969
80.000000	101.475	15.4573
81.199997	101.442	14.7845
82.500000	101.389	14.9145
83.800003	101.484	14.2511
85.000000	101.407	13.6465
86.199997	101.435	13.5767
87.500000	101.418	13.1295
88.500000	101.432	12.9944
90.000000	101.388	12.5264
91.199997	101.401	12.1929
92.500000	101.294	11.8325
93.800003	101.374	12.0066
95.000000	101.381	11.1330
96.199997	101.362	10.8531
97.500000	101.349	10.5563
98.800003	101.358	10.2828
100.000000	101.339	10.0941
101.500000	101.350	9.8112
103.000000	101.334	9.4821
104.400002	101.324	9.2703
106.000000	101.312	8.9990
107.500000	101.317	8.5848
109.000000	101.283	8.2953
110.599998	101.275	8.0044
112.000000	101.287	7.7191
113.800003	101.242	7.4875
115.000000	101.231	7.3322
117.199997	101.207	6.6888
118.000000	101.121	6.7009
120.599998	101.139	6.3237
122.000000	101.167	6.2610
124.099998	101.172	5.9336
125.000000	101.172	5.6991
126.500000	101.146	5.5911
128.000000	101.136	5.3505
131.500000	101.096	4.8340
132.000000	101.095	4.7408
134.000000	101.089	4.5874
136.000000	101.054	4.2372
138.000000	101.024	4.0649
140.000000	101.040	3.7626
143.000000	101.001	3.5316
145.000000	100.991	3.1632
147.500000	100.954	2.8707
150.000000	100.918	2.7029
152.500000	100.905	2.6927
155.000000	100.862	2.3843
157.500000	100.821	2.0616
160.000000	100.802	1.8898
162.500000	100.772	1.6556
165.000000	100.732	1.5429
167.500000	100.763	1.0811
170.000000	100.705	1.4518
172.500000	100.664	1.3328
175.000000	100.627	1.3952
177.500000	100.605	1.2739
180.000000	100.603	1.1349
182.500000	100.554	1.4410
185.000000	100.525	1.1121
187.500000	100.576	0.6619
190.000000	100.618	0.7211
192.500000	100.569	0.5555
195.000000	100.528	0.4695
197.500000	100.510	0.0619
200.000000	100.515	0.1211
203.000000	100.460	0.0338
206.000000	100.438	-0.1016
209.000000	100.412	-0.1596
212.000000	100.452	-0.2339
214.000000	100.385	-0.2493
218.000000	100.363	-0.5116
220.000000	100.341	-0.5914
224.000000	100.302	-0.7353
227.000000	100.263	-0.9014
230.000000	100.269	-0.7644
233.000000	100.211	-1.0630
236.000000	100.136	-1.2233
240.000000	100.183	-1.1049
243.000000	100.150	-1.1053
247.000000	100.106	-1.3909
250.000000	100.095	-1.3968
254.000000	100.041	-1.4610
258.000000	100.004	-1.5481
262.000000	99.975	-1.4268
265.000000	99.972	-1.5558
269.000000	99.930	-1.3682
272.000000	99.916	-1.6597
276.000000	99.865	-1.4866
280.000000	99.821	-1.6226
285.000000	99.908	-1.3805
290.000000	99.758	-1.2754
295.000000	99.750	-1.4600
300.000000	99.673	-1.2521
304.000000	99.652	-1.2714
307.000000	99.651	-1.2986
311.000000	99.623	-1.3160
315.000000	99.617	-1.2825
320.000000	99.585	-0.9216
325.000000	99.548	-1.1872
330.000000	99.508	-0.9257
335.000000	99.510	-0.8792
340.000000	99.459	-0.9908
345.000000	99.435	-1.0160
350.000000	99.390	-0.7893
355.000000	99.401	-0.7842
360.000000	99.328	-0.6055
365.000000	99.308	-0.6719
370.000000	99.285	-0.5869
375.000000	99.232	-0.4489
382.000000	99.178	-0.5165
387.000000	99.153	-0.2125
395.000000	99.103	0.0153
400.000000	99.070	0.3021
406.000000	99.017	0.6948
412.000000	99.011	0.9655
418.000000	99.036	1.2926
425.000000	99.012	1.5402
431.000000	98.986	1.6281
437.000000	98.965	1.5795
444.000000	98.964	1.9584
450.000000	98.956	2.1246
455.000000	98.967	2.2286
462.000000	98.919	2.2775
468.000000	98.945	3.2484
475.000000	98.903	2.4177
482.000000	98.915	2.8168
487.000000	98.968	3.2339
494.000000	98.783	2.7031
500.000000	98.832	3.0894
508.000000	98.819	3.4496
515.000000	98.753	3.5126
522.000000	98.765	3.3685
530.000000	98.762	3.5096
538.000000	98.733	4.1257
545.000000	98.714	4.4332
552.000000	98.691	4.5449
560.000000	98.644	4.5410
570.000000	98.651	4.9880
580.000000	98.617	5.1042
590.000000	98.575	5.5148
600.000000	98.583	5.8447
608.000000	98.542	5.8821
615.000000	98.525	6.2556
622.000000	98.532	6.2441
630.000000	98.504	6.7030
640.000000	98.488	6.7584
650.000000	98.457	7.1537
660.000000	98.441	7.6470
670.000000	98.409	7.7027
680.000000	98.385	8.0559
690.000000	98.341	8.3024
700.000000	98.329	8.7521
710.000000	98.282	8.9802
720.000000	98.281	9.1781
730.000000	98.259	9.5786
740.000000	98.207	9.9408
750.000000	98.187	10.3129
762.000000	98.162	10.6282
775.000000	98.121	11.0677
788.000000	98.059	11.6787
800.000000	98.043	12.1350
812.000000	98.008	12.4634
825.000000	97.931	13.3345
838.000000	97.920	14.0301
850.000000	97.871	14.3784
862.000000	97.868	15.5001
875.000000	97.829	15.5815
885.000000	97.797	15.9000
900.000000	97.768	17.6320
912.000000	97.774	17.9306
925.000000	97.738	19.0092
938.000000	97.686	19.8773
950.000000	97.612	21.0582
962.000000	97.715	21.1898
975.000000	97.633	23.4845
988.000000	97.638	23.8918
1000.000000	97.625	25.2408
1015.000000	97.711	26.9051
1030.000000	97.769	28.7010
1044.000000	97.903	30.1465
1060.000000	98.080	31.8417
1075.000000	98.304	33.0206
1090.000000	98.532	34.1274
1106.000000	98.776	34.7976
1120.000000	98.980	35.0148
1138.000000	99.256	35.3190
1150.000000	99.378	35.3100
1172.000000	99.642	35.0728
1180.000000	99.708	35.0274
1206.000000	99.935	34.6617
1220.000000	100.005	34.5918
1241.000000	100.136	34.2704
1250.000000	100.180	34.2217
1265.000000	100.245	34.1504
1280.000000	100.306	34.1574
1315.000000	100.437	33.8717
1320.000000	100.431	34.0417
1340.000000	100.507	34.0747
1360.000000	100.566	34.1731
1380.000000	100.613	34.4433
1400.000000	100.694	34.6426
1430.000000	100.768	35.0152
1450.000000	100.832	35.1335
1475.000000	100.900	35.5642
1500.000000	100.973	35.9729
1525.000000	101.076	36.4532
1550.000000	101.170	36.7148
1575.000000	101.274	37.1738
1600.000000	101.370	37.6068
1625.000000	101.474	38.0884
1650.000000	101.582	38.5692
1675.000000	101.716	38.8601
1700.000000	101.838	39.1883
1725.000000	101.966	39.6508
1750.000000	102.112	40.1267
1775.000000	102.243	40.4775
1800.000000	102.388	40.7753
1825.000000	102.539	41.0084
1850.000000	102.692	41.2104
1875.000000	102.848	41.5354
1900.000000	103.017	41.6591
1925.000000	103.196	41.8572
1950.000000	103.356	41.9821
1975.000000	103.541	41.9732
2000.000000	103.714	42.0178
2030.000000	103.935	41.9143
2060.000000	104.173	41.7580
2090.000000	104.397	41.5365
2120.000000	104.632	41.0938
2140.000000	104.791	40.9429
2180.000000	105.121	40.1562
2200.000000	105.287	39.7319
2240.000000	105.627	38.6542
2270.000000	105.898	37.6357
2300.000000	106.122	36.5818
2330.000000	106.353	35.4962
2360.000000	106.566	34.3676
2400.000000	106.838	32.4367
2430.000000	107.014	30.9684
2470.000000	107.235	28.7216
2500.000000	107.368	27.0800
2540.000000	107.523	24.6450
2580.000000	107.624	22.0858
2620.000000	107.665	19.4829
2650.000000	107.683	17.6040
2690.000000	107.651	15.0418
2720.000000	107.600	13.1868
2760.000000	107.490	10.8375
2800.000000	107.343	8.6378
2850.000000	107.127	6.2067
2900.000000	106.855	4.1571
2950.000000	106.564	2.3562
3000.000000	106.270	0.9712
3040.000000	106.018	0.0108
3070.000000	105.835	-0.5830
3110.000000	105.583	-1.1077
3150.000000	105.330	-1.5029
3200.000000	105.021	-1.7927
3250.000000	104.719	-1.8385
3300.000000	104.441	-1.5626
3350.000000	104.183	-1.2942
3400.000000	103.931	-0.6824
3450.000000	103.718	-0.0541
3500.000000	103.538	0.7264
3550.000000	103.344	1.4613
3600.000000	103.182	2.4196
3650.000000	103.055	3.3367
3700.000000	102.923	4.3213
3750.000000	102.857	5.3857
3820.000000	102.745	7.0327
3870.000000	102.728	8.0283
3950.000000	102.678	9.9410
4000.000000	102.710	11.1636
4060.000000	102.758	12.5445
4120.000000	102.847	13.7767
4180.000000	102.938	14.9860
4250.000000	103.101	16.3168
4310.000000	103.288	17.4630
4370.000000	103.491	18.3790
4440.000000	103.786	19.3021
4500.000000	104.090	20.0078
4550.000000	104.341	20.3004
4620.000000	104.775	20.3245
4680.000000	105.182	20.0106
4750.000000	105.742	18.9006
4820.000000	106.321	16.5344
4870.000000	106.758	14.5846
4940.000000	107.284	10.8678
5000.000000	107.657	6.7365
5080.000000	107.860	0.1488
5150.000000	107.734	-5.2953
5220.000000	107.520	-9.0501
5300.000000	107.503	-12.7352
5380.000000	107.565	-18.7196
5450.000000	107.320	-25.2988
5520.000000	106.742	-31.4264
5600.000000	105.814	-37.0275
5700.000000	104.495	-41.2512
5800.000000	103.226	-42.9895
5900.000000	102.027	-43.7427
6000.000000	100.942	-43.2163
6080.000000	100.120	-42.4157
6150.000000	99.465	-41.2047
6220.000000	98.874	-39.8282
6300.000000	98.211	-37.8776
6400.000000	97.488	-35.5449
6500.000000	96.828	-32.7516
6600.000000	96.260	-29.5060
6700.000000	95.685	-26.5397
6800.000000	95.185	-22.9595
6900.000000	94.756	-19.3832
7000.000000	94.419	-16.0970
7100.000000	94.036	-12.8135
7200.000000	93.856	-9.5256
7300.000000	93.666	-5.4484
7400.000000	93.375	-1.8812
7500.000000	93.197	2.2590
7620.000000	93.391	6.8721
7750.000000	93.330	10.6964
7880.000000	93.353	14.8977
8000.000000	93.421	20.2882
8120.000000	93.641	23.7259
8250.000000	94.123	27.1204
8380.000000	94.487	30.7496
8500.000000	94.991	33.9642
8620.000000	95.717	37.4695
8750.000000	96.635	39.7679
8850.000000	97.505	40.8202
9000.000000	99.135	40.5366
9120.000000	100.703	36.9526
9250.000000	102.551	27.5508
9380.000000	103.936	10.0980
9500.000000	103.805	-10.8196
9620.000000	102.166	-27.5608
9750.000000	99.890	-37.7247
9880.000000	97.786	-41.9801
10000.000000	96.072	-43.1364
10150.000000	94.225	-41.9991
10300.000000	92.627	-39.8159
10440.000000	91.369	-36.9510
10600.000000	90.174	-33.2397
10750.000000	89.107	-28.3342
10900.000000	88.158	-24.4500
11060.000000	87.430	-20.6654
11200.000000	86.705	-15.3865
11380.000000	86.134	-10.5172
11500.000000	85.642	-4.9574
11720.000000	85.207	0.9393
11800.000000	85.121	3.7382
12060.000000	84.845	11.4169
12200.000000	84.879	16.5109
12410.000000	85.114	21.4686
12500.000000	85.330	24.2810
12650.000000	85.632	27.0740
12800.000000	86.309	31.5863
13150.000000	88.205	33.3020
13200.000000	88.627	32.8531
13400.000000	90.402	26.0513
13600.000000	91.797	9.2787
13800.000000	91.438	-14.4457
14000.000000	89.100	-32.6421
14300.000000	84.750	-40.2858
14500.000000	82.718	-42.0841
14750.000000	80.185	-36.6007
15000.000000	77.949	-32.6068
15250.000000	76.676	-23.3330
15500.000000	74.591	-20.0573
15750.000000	73.047	-10.2836
16000.000000	72.505	-4.2793
16250.000000	71.552	5.3347
16500.000000	71.563	14.9181
16750.000000	70.399	23.1438
17000.000000	71.964	30.3427
17250.000000	71.647	39.9974
17500.000000	72.286	44.5076
17750.000000	73.491	42.9417
18000.000000	74.870	39.1007
18250.000000	77.007	34.3085
18500.000000	77.429	14.9899
18750.000000	72.174	10.4284
19000.000000	78.114	42.6963
19250.000000	80.980	11.7863
19500.000000	80.596	-13.7532
19750.000000	79.125	-29.2859
