* Measurement data measured by REW V5.31.1
* Source: EXCL: Micr√≥fono (Realtek(R) Audio), MICROPHONE (Volumen general), L, volume: 0,900. Timing signal peak level -14,6 dBFS, measurement signal peak level -13,4 dBFS
* Format: 512k Log Swept Sine, 1 sweep at -12,0 dBFS using an acoustic timing reference
* Dated: 26/09/2024 02:37:01 PM
* REW Settings:
*  C-weighting compensation: Off
*  Target level: 75.0 dB
* Note: Delay -0,0349 ms (-12 mm, -0,47 in) using estimated IR delay relative to Acoustic reference played from HEADPHONE R with no timing offset Clock adjustment: 20,3 ppm
* Measurement: hc2 mic 2
* Smoothing: None
* Frequency Step: 1/48 octave
* Start Frequency: 20.000 Hz
*
* Freq(Hz)	SPL(dB)	Phase(degrees)
20.000000	86.759	90.4628
20.299999	86.776	88.6882
20.600000	86.737	87.2631
20.900000	86.672	86.3638
21.200001	86.629	86.0480
21.400000	86.639	86.0681
21.799999	86.770	86.2912
22.000000	86.888	86.2915
22.400000	87.184	85.7209
22.700001	87.403	84.7639
23.000000	87.577	83.5120
23.299999	87.695	82.2137
23.600000	87.766	81.0660
24.000000	87.828	79.9562
24.299999	87.883	79.4146
24.700001	87.992	78.8661
25.000000	88.094	78.4152
25.400000	88.231	77.6614
25.799999	88.340	76.8194
26.200001	88.417	76.0601
26.500000	88.464	75.6083
26.900000	88.527	75.1568
27.200001	88.584	74.8831
27.600000	88.678	74.5154
28.000000	88.790	74.0156
28.500000	88.934	72.9938
29.000000	89.016	71.4941
29.500000	88.976	69.9706
30.000000	88.855	69.2251
30.400000	88.806	69.3636
30.700001	88.848	69.6299
31.100000	88.999	69.5858
31.500000	89.174	68.7582
32.000000	89.282	67.0390
32.500000	89.250	65.7451
33.000000	89.251	65.4641
33.500000	89.412	65.2884
34.000000	89.624	64.1328
34.500000	89.699	62.4312
35.000000	89.637	61.4624
35.500000	89.638	61.6288
36.000000	89.811	61.7357
36.500000	90.013	60.7743
37.000000	90.059	59.3640
37.500000	89.983	58.7904
38.200001	90.042	59.4065
38.700001	90.251	59.1515
39.500000	90.389	56.9562
40.000000	90.307	56.1360
40.599998	90.276	56.2170
41.200001	90.395	55.9390
41.799999	90.465	54.8378
42.500000	90.412	54.0704
43.099998	90.459	54.0970
43.700001	90.603	53.4935
44.400002	90.633	51.8563
45.000000	90.508	51.2249
45.500000	90.461	51.5847
46.200001	90.597	51.9420
46.799999	90.736	51.1940
47.500000	90.759	50.0511
48.200001	90.734	49.5372
48.700001	90.752	49.3492
49.400002	90.811	48.9250
50.000000	90.860	48.4302
50.799999	90.910	47.6633
51.500000	90.921	47.0624
52.200001	90.930	46.7510
53.000000	90.984	46.5010
53.799999	91.049	46.0916
54.500000	91.100	45.6784
55.200001	91.143	45.1747
56.000000	91.160	44.5549
57.000000	91.163	44.0645
58.000000	91.242	43.6241
59.000000	91.329	42.0642
60.000000	91.110	40.5529
60.799999	90.955	41.5738
61.500000	91.134	42.4521
62.200001	91.344	41.2965
63.000000	91.213	39.4972
64.000000	90.986	41.0273
65.000000	91.364	41.8671
66.000000	91.488	39.8611
67.000000	91.421	39.5520
68.000000	91.503	39.1854
69.000000	91.506	38.7881
70.000000	91.569	38.5423
71.000000	91.557	38.0370
72.000000	91.568	38.2137
73.000000	91.640	37.8646
74.000000	91.629	37.4043
75.000000	91.647	37.1975
76.199997	91.665	36.5857
77.500000	91.672	36.1831
78.800003	91.702	35.9541
80.000000	91.851	35.6397
81.199997	91.860	34.3243
82.500000	91.805	34.4908
83.800003	91.873	34.1813
85.000000	91.839	33.9688
86.199997	91.875	34.2949
87.500000	91.978	33.5820
88.500000	91.913	33.0761
90.000000	91.924	33.1997
91.199997	91.946	32.8406
92.500000	91.963	32.6392
93.800003	91.964	32.2081
95.000000	91.964	32.3409
96.199997	92.032	31.8307
97.500000	91.957	31.5874
98.800003	92.013	31.7422
100.000000	92.027	31.3568
101.500000	92.031	31.3330
103.000000	92.067	31.0755
104.400002	92.086	30.8595
106.000000	92.095	30.6060
107.500000	92.129	30.3779
109.000000	92.125	30.3725
110.599998	92.173	30.2368
112.000000	92.184	30.0563
113.800003	92.145	29.9728
115.000000	92.205	29.5918
117.199997	92.135	29.1956
118.000000	92.162	29.0967
120.599998	92.236	29.1553
122.000000	92.280	28.7050
124.099998	92.226	29.0130
125.000000	92.263	29.0941
126.500000	92.293	28.5676
128.000000	92.254	28.5129
131.500000	92.314	28.2362
132.000000	92.330	28.3089
134.000000	92.368	27.9132
136.000000	92.335	27.8164
138.000000	92.318	27.7763
140.000000	92.384	27.4539
143.000000	92.408	27.5651
145.000000	92.476	27.4897
147.500000	92.458	27.4104
150.000000	92.499	26.8744
152.500000	92.499	27.0461
155.000000	92.483	27.4129
157.500000	92.478	27.0864
160.000000	92.483	26.8492
162.500000	92.553	26.8156
165.000000	92.557	26.3347
167.500000	92.599	26.5705
170.000000	92.612	26.6406
172.500000	92.616	26.5127
175.000000	92.622	26.5777
177.500000	92.604	26.4895
180.000000	92.583	26.7429
182.500000	92.653	26.3760
185.000000	92.671	25.9839
187.500000	92.717	26.1261
190.000000	92.730	26.2008
192.500000	92.670	26.4341
195.000000	92.641	26.4780
197.500000	92.660	26.7266
200.000000	92.718	26.4506
203.000000	92.763	27.2490
206.000000	92.739	26.8715
209.000000	92.776	26.7104
212.000000	92.832	25.9880
214.000000	92.914	26.6272
218.000000	92.847	27.4830
220.000000	92.864	27.2535
224.000000	92.908	27.2583
227.000000	92.957	27.1491
230.000000	92.954	27.2412
233.000000	92.975	27.2335
236.000000	93.032	27.2843
240.000000	93.065	27.0120
243.000000	93.035	27.6644
247.000000	93.065	27.2264
250.000000	93.131	27.4207
254.000000	93.123	27.8495
258.000000	93.156	27.4155
262.000000	93.256	27.7134
265.000000	93.200	27.6816
269.000000	93.170	27.9178
272.000000	93.215	27.7695
276.000000	93.252	28.0768
280.000000	93.244	27.9144
285.000000	93.279	27.5715
290.000000	93.404	27.7050
295.000000	93.411	28.4949
300.000000	93.445	28.1071
304.000000	93.455	28.3843
307.000000	93.528	28.6150
311.000000	93.489	28.6264
315.000000	93.529	28.4139
320.000000	93.567	29.1280
325.000000	93.648	28.7250
330.000000	93.675	29.2238
335.000000	93.708	28.7957
340.000000	93.748	29.0926
345.000000	93.736	28.8950
350.000000	93.865	29.2457
355.000000	93.848	29.2647
360.000000	93.866	29.5452
365.000000	93.883	29.7365
370.000000	93.932	29.2555
375.000000	93.978	29.6149
382.000000	94.036	29.7995
387.000000	94.059	29.9109
395.000000	94.153	29.7776
400.000000	94.139	29.8733
406.000000	94.200	29.7010
412.000000	94.202	30.2587
418.000000	94.214	30.3062
425.000000	94.275	30.2960
431.000000	94.334	30.4868
437.000000	94.332	30.3414
444.000000	94.426	30.9391
450.000000	94.481	30.8889
455.000000	94.507	30.9332
462.000000	94.498	31.2468
468.000000	94.579	30.8537
475.000000	94.646	31.5299
482.000000	94.649	31.3354
487.000000	94.684	31.2958
494.000000	94.755	31.7032
500.000000	94.766	31.7969
508.000000	94.849	31.5067
515.000000	94.901	31.6241
522.000000	94.946	31.8393
530.000000	94.981	31.7122
538.000000	95.055	31.7219
545.000000	95.086	31.7832
552.000000	95.153	31.9133
560.000000	95.144	31.9009
570.000000	95.277	31.5638
580.000000	95.264	31.8296
590.000000	95.388	32.0656
600.000000	95.335	31.8848
608.000000	95.407	32.0117
615.000000	95.450	31.9014
622.000000	95.497	31.9583
630.000000	95.495	31.9649
640.000000	95.526	32.2480
650.000000	95.565	31.8451
660.000000	95.599	32.0771
670.000000	95.642	31.9462
680.000000	95.657	32.0435
690.000000	95.674	31.9254
700.000000	95.700	31.8491
710.000000	95.719	31.8069
720.000000	95.706	31.8541
730.000000	95.784	32.1372
740.000000	95.788	32.1622
750.000000	95.828	32.0378
762.000000	95.828	32.3586
775.000000	95.840	32.3415
788.000000	95.868	32.2090
800.000000	95.863	32.4450
812.000000	95.786	32.5878
825.000000	95.866	32.6036
838.000000	95.836	33.1470
850.000000	95.821	33.4672
862.000000	95.791	33.6637
875.000000	95.816	34.1622
885.000000	95.811	34.4278
900.000000	95.813	34.9289
912.000000	95.808	35.7025
925.000000	95.789	36.2568
938.000000	95.824	36.8234
950.000000	95.854	37.5981
962.000000	95.884	38.1878
975.000000	95.907	38.8143
988.000000	95.964	39.8552
1000.000000	96.049	40.6697
1015.000000	96.155	41.5875
1030.000000	96.248	42.7140
1044.000000	96.389	43.5483
1060.000000	96.562	44.3574
1075.000000	96.722	44.9699
1090.000000	96.933	45.4995
1106.000000	97.167	45.8858
1120.000000	97.347	45.9355
1138.000000	97.596	45.7185
1150.000000	97.730	45.5279
1172.000000	97.963	44.9706
1180.000000	98.021	44.7746
1206.000000	98.197	43.9813
1220.000000	98.280	43.6941
1241.000000	98.402	43.1617
1250.000000	98.416	42.8857
1265.000000	98.495	42.7160
1280.000000	98.526	42.4597
1315.000000	98.608	41.9219
1320.000000	98.624	41.9164
1340.000000	98.684	41.6591
1360.000000	98.718	41.6022
1380.000000	98.778	41.5752
1400.000000	98.810	41.5706
1430.000000	98.895	41.4329
1450.000000	98.928	41.7023
1475.000000	99.000	41.7292
1500.000000	99.066	42.0699
1525.000000	99.139	42.0999
1550.000000	99.214	42.3736
1575.000000	99.285	42.6691
1600.000000	99.359	42.8805
1625.000000	99.461	43.1669
1650.000000	99.549	43.5379
1675.000000	99.653	43.5103
1700.000000	99.745	43.9236
1725.000000	99.849	44.2462
1750.000000	99.976	44.4602
1775.000000	100.080	44.6496
1800.000000	100.194	44.9637
1825.000000	100.334	45.1839
1850.000000	100.473	45.3680
1875.000000	100.589	45.6115
1900.000000	100.747	45.7410
1925.000000	100.865	45.8021
1950.000000	101.041	45.9888
1975.000000	101.184	46.0476
2000.000000	101.347	46.0527
2030.000000	101.549	46.0579
2060.000000	101.744	45.9808
2090.000000	101.951	45.8998
2120.000000	102.166	45.5085
2140.000000	102.318	45.3911
2180.000000	102.600	44.8895
2200.000000	102.748	44.5162
2240.000000	103.056	43.7856
2270.000000	103.271	43.0481
2300.000000	103.495	42.2649
2330.000000	103.711	41.3837
2360.000000	103.930	40.2711
2400.000000	104.199	38.7194
2430.000000	104.392	37.4252
2470.000000	104.642	35.4412
2500.000000	104.786	33.9173
2540.000000	104.982	31.5444
2580.000000	105.130	29.1656
2620.000000	105.251	26.5931
2650.000000	105.293	24.6567
2690.000000	105.324	22.0642
2720.000000	105.310	20.0233
2760.000000	105.259	17.5039
2800.000000	105.162	15.0230
2850.000000	104.994	12.1340
2900.000000	104.744	9.6284
2950.000000	104.493	7.3632
3000.000000	104.204	5.4678
3040.000000	103.939	4.2948
3070.000000	103.755	3.3630
3110.000000	103.485	2.5060
3150.000000	103.206	1.7275
3200.000000	102.904	1.1721
3250.000000	102.591	0.6933
3300.000000	102.288	0.5792
3350.000000	101.996	0.6369
3400.000000	101.726	0.8406
3450.000000	101.459	1.2982
3500.000000	101.231	1.8844
3550.000000	101.035	2.5048
3600.000000	100.832	3.3402
3650.000000	100.641	4.1809
3700.000000	100.513	5.0531
3750.000000	100.351	6.1093
3820.000000	100.218	7.6636
3870.000000	100.108	8.8586
3950.000000	100.038	10.8802
4000.000000	99.991	12.1403
4060.000000	99.990	13.5300
4120.000000	100.050	15.0262
4180.000000	100.113	16.3588
4250.000000	100.236	17.9888
4310.000000	100.376	19.1423
4370.000000	100.541	20.1624
4440.000000	100.773	21.3025
4500.000000	101.012	22.2697
4550.000000	101.232	22.9019
4620.000000	101.594	23.4707
4680.000000	101.974	23.5399
4750.000000	102.425	23.2440
4820.000000	102.942	22.2874
4870.000000	103.322	21.2195
4940.000000	103.884	18.7777
5000.000000	104.331	15.6809
5080.000000	104.820	10.1378
5150.000000	105.038	4.2821
5220.000000	104.968	-1.8668
5300.000000	104.621	-7.5416
5380.000000	104.285	-11.7251
5450.000000	104.107	-15.9114
5520.000000	103.823	-21.0065
5600.000000	103.177	-26.7471
5700.000000	102.061	-32.2878
5800.000000	100.827	-35.5464
5900.000000	99.653	-36.6055
6000.000000	98.558	-36.8068
6080.000000	97.718	-35.9069
6150.000000	97.041	-34.7682
6220.000000	96.412	-33.2314
6300.000000	95.778	-31.5511
6400.000000	95.041	-28.7586
6500.000000	94.398	-26.1035
6600.000000	93.819	-23.0214
6700.000000	93.320	-19.5777
6800.000000	92.844	-16.5809
6900.000000	92.381	-12.5236
7000.000000	92.108	-9.3120
7100.000000	91.737	-5.6488
7200.000000	91.526	-2.0231
7300.000000	91.375	1.4824
7400.000000	91.256	5.6976
7500.000000	91.111	9.3332
7620.000000	91.372	15.2150
7750.000000	91.457	18.3232
7880.000000	91.680	21.8052
8000.000000	91.881	25.9644
8120.000000	92.427	28.7812
8250.000000	93.050	32.8034
8380.000000	93.720	34.2521
8500.000000	94.558	35.1401
8620.000000	95.528	34.9001
8750.000000	96.735	31.9632
8850.000000	97.699	27.1675
9000.000000	98.870	14.4148
9120.000000	99.036	0.4788
9250.000000	98.182	-13.7647
9380.000000	96.660	-24.2116
9500.000000	95.011	-30.2151
9620.000000	93.433	-32.8533
9750.000000	91.855	-32.9762
9880.000000	90.461	-31.6066
10000.000000	89.217	-30.0902
10150.000000	88.057	-27.2100
10300.000000	87.028	-24.4192
10440.000000	85.888	-18.9493
10600.000000	85.124	-14.4500
10750.000000	84.309	-10.7039
10900.000000	83.668	-4.4893
11060.000000	83.308	-0.3669
11200.000000	82.804	4.2721
11380.000000	82.219	9.2712
11500.000000	82.003	15.0686
11720.000000	81.705	21.3998
11800.000000	81.723	22.3462
12060.000000	81.817	32.1598
12200.000000	82.130	35.1769
12410.000000	82.298	41.0753
12500.000000	82.459	43.7144
12650.000000	83.435	46.3204
12800.000000	84.417	47.9786
13150.000000	87.295	41.5238
13200.000000	87.799	37.8058
13400.000000	89.087	18.5621
13600.000000	88.097	-5.9424
13800.000000	85.320	-21.6976
14000.000000	82.407	-28.7999
14300.000000	78.728	-24.2770
14500.000000	76.877	-20.3383
14750.000000	74.717	-16.6141
15000.000000	72.620	-9.6784
15250.000000	71.848	2.2755
15500.000000	69.127	13.8884
15750.000000	68.641	14.6334
16000.000000	68.648	21.6627
16250.000000	68.282	35.2359
16500.000000	68.179	45.5866
16750.000000	68.624	50.9940
17000.000000	68.998	56.6135
17250.000000	70.847	72.5638
17500.000000	72.851	70.9593
17750.000000	74.316	68.5826
18000.000000	77.296	53.3042
18250.000000	77.641	31.2171
18500.000000	76.145	8.1793
18750.000000	72.950	0.8894
19000.000000	74.381	9.8156
19250.000000	73.221	-3.6246
19500.000000	72.860	-13.4985
19750.000000	71.533	-15.2848
