* Measurement data measured by REW V5.31.1
* Source: EXCL: Micr√≥fono (Realtek(R) Audio), MICROPHONE (Volumen general), L, volume: 0,900. Timing signal peak level -11,1 dBFS, measurement signal peak level -10,6 dBFS
* Format: 512k Log Swept Sine, 1 sweep at -12,0 dBFS using an acoustic timing reference
* Dated: 13/09/2024 09:57:07 PM
* REW Settings:
*  C-weighting compensation: Off
*  Target level: 75.0 dB
* Note: Delay -0,0327 ms (-11 mm, -0,44 in) using estimated IR delay relative to Acoustic reference played from HEADPHONE R with no timing offset Clock adjustment: 18,5 ppm
* Measurement: V7 mic 1
* Smoothing: None
* Frequency Step: 1/48 octave
* Start Frequency: 20.000 Hz
*
* Freq(Hz)	SPL(dB)	Phase(degrees)
20.000000	96.135	78.8792
20.299999	96.249	77.8246
20.600000	96.343	76.7199
20.900000	96.418	75.6341
21.200001	96.479	74.6273
21.400000	96.516	74.0121
21.799999	96.590	72.8932
22.000000	96.630	72.3703
22.400000	96.717	71.3463
22.700001	96.784	70.5732
23.000000	96.848	69.7961
23.299999	96.908	69.0342
23.600000	96.965	68.3032
24.000000	97.040	67.3878
24.299999	97.098	66.7365
24.700001	97.179	65.8862
25.000000	97.241	65.2409
25.400000	97.322	64.3563
25.799999	97.394	63.4548
26.200001	97.452	62.5762
26.500000	97.488	61.9652
26.900000	97.532	61.2440
27.200001	97.569	60.7690
27.600000	97.629	60.1728
28.000000	97.701	59.5203
28.500000	97.787	58.5273
29.000000	97.834	57.4475
29.500000	97.844	56.5629
30.000000	97.862	56.0176
30.400000	97.914	55.6694
30.700001	97.974	55.3202
31.100000	98.057	54.6373
31.500000	98.115	53.7728
32.000000	98.139	52.7405
32.500000	98.145	52.0309
33.000000	98.186	51.5296
33.500000	98.265	50.8973
34.000000	98.336	50.0176
34.500000	98.371	49.1125
35.000000	98.390	48.3821
35.500000	98.422	47.7621
36.000000	98.464	47.0833
36.500000	98.492	46.3656
37.000000	98.508	45.7734
37.500000	98.541	45.3159
38.200001	98.624	44.5019
38.700001	98.664	43.6953
39.500000	98.655	42.6880
40.000000	98.666	42.4070
40.599998	98.730	42.0255
41.200001	98.790	41.3149
41.799999	98.796	40.6252
42.500000	98.799	40.2479
43.099998	98.847	39.9270
43.700001	98.888	39.3095
44.400002	98.879	38.6012
45.000000	98.875	38.2246
45.500000	98.895	37.8149
46.200001	98.895	36.9450
46.799999	98.845	36.4109
47.500000	98.844	36.3251
48.200001	98.959	35.8902
48.700001	99.026	35.1039
49.400002	99.027	34.1099
50.000000	99.033	33.8370
50.799999	99.136	33.4267
51.500000	99.180	32.7084
52.200001	99.174	32.4801
53.000000	99.241	32.3525
53.799999	99.246	31.6509
54.500000	99.190	31.4878
55.200001	99.217	31.1770
56.000000	99.145	29.9281
57.000000	99.029	30.0084
58.000000	99.271	27.3427
59.000000	98.638	23.9777
60.000000	98.462	28.7060
60.799999	99.103	28.5926
61.500000	99.243	26.2345
62.200001	99.178	25.8371
63.000000	99.328	26.0959
64.000000	99.412	25.1664
65.000000	99.398	25.3951
66.000000	99.461	25.1829
67.000000	99.424	24.6931
68.000000	99.376	24.4019
69.000000	99.377	24.0825
70.000000	99.389	23.3966
71.000000	99.377	22.9163
72.000000	99.403	22.5433
73.000000	99.419	22.2280
74.000000	99.455	21.9305
75.000000	99.447	21.4678
76.199997	99.439	21.3314
77.500000	99.456	20.6419
78.800003	99.430	20.2802
80.000000	99.444	19.7642
81.199997	99.455	19.5536
82.500000	99.464	18.8395
83.800003	99.416	18.9569
85.000000	99.483	18.6475
86.199997	99.463	18.0720
87.500000	99.443	17.8276
88.500000	99.474	17.6056
90.000000	99.458	16.9646
91.199997	99.467	16.9748
92.500000	99.490	16.5383
93.800003	99.485	16.3535
95.000000	99.498	15.9753
96.199997	99.475	15.6990
97.500000	99.478	15.4883
98.800003	99.495	15.2327
100.000000	99.504	14.7278
101.500000	99.457	14.4915
103.000000	99.480	14.2975
104.400002	99.477	13.9803
106.000000	99.465	13.6716
107.500000	99.462	13.5038
109.000000	99.465	13.1802
110.599998	99.463	12.9391
112.000000	99.467	12.3630
113.800003	99.454	12.4077
115.000000	99.442	12.0382
117.199997	99.427	11.7070
118.000000	99.378	11.9698
120.599998	99.425	11.6478
122.000000	99.426	11.2843
124.099998	99.404	10.9111
125.000000	99.399	10.7611
126.500000	99.404	10.6356
128.000000	99.422	10.3270
131.500000	99.382	10.1091
132.000000	99.379	10.0004
134.000000	99.377	9.7924
136.000000	99.361	9.4047
138.000000	99.357	9.3235
140.000000	99.342	8.9930
143.000000	99.323	8.9274
145.000000	99.313	8.6244
147.500000	99.295	8.3939
150.000000	99.281	8.0287
152.500000	99.271	7.8934
155.000000	99.255	7.5599
157.500000	99.234	7.3727
160.000000	99.212	7.3523
162.500000	99.204	7.0189
165.000000	99.189	6.9523
167.500000	99.201	6.7544
170.000000	99.173	6.5756
172.500000	99.146	6.3925
175.000000	99.149	6.3888
177.500000	99.096	6.0729
180.000000	99.101	5.9159
182.500000	99.066	5.9676
185.000000	99.052	5.6934
187.500000	99.036	5.5828
190.000000	99.026	5.3423
192.500000	99.004	5.3688
195.000000	98.965	5.3444
197.500000	98.981	5.0435
200.000000	98.974	4.9752
203.000000	98.950	4.8895
206.000000	98.925	4.8099
209.000000	98.897	4.7197
212.000000	98.886	4.6529
214.000000	98.836	4.4764
218.000000	98.816	4.3257
220.000000	98.799	4.3817
224.000000	98.772	4.2771
227.000000	98.744	4.2584
230.000000	98.671	4.1489
233.000000	98.665	4.1799
236.000000	98.635	4.4045
240.000000	98.641	4.4963
243.000000	98.629	4.4268
247.000000	98.629	4.6096
250.000000	98.616	4.4231
254.000000	98.564	4.4956
258.000000	98.571	4.4473
262.000000	98.539	4.3652
265.000000	98.509	4.3662
269.000000	98.498	4.2419
272.000000	98.481	4.2574
276.000000	98.459	4.3897
280.000000	98.423	4.3478
285.000000	98.387	4.2340
290.000000	98.355	4.3637
295.000000	98.340	4.4390
300.000000	98.284	4.1409
304.000000	98.253	4.5157
307.000000	98.249	4.5718
311.000000	98.242	4.6735
315.000000	98.221	4.7197
320.000000	98.194	4.8906
325.000000	98.159	4.9957
330.000000	98.112	5.0109
335.000000	98.088	5.1191
340.000000	98.051	5.3529
345.000000	98.051	5.5851
350.000000	98.037	5.5965
355.000000	98.000	5.6517
360.000000	97.973	5.8141
365.000000	97.929	6.0953
370.000000	97.902	6.1953
375.000000	97.889	6.4361
382.000000	97.846	6.6226
387.000000	97.845	6.9052
395.000000	97.773	7.1854
400.000000	97.763	7.4484
406.000000	97.737	7.6546
412.000000	97.690	8.0542
418.000000	97.694	8.1862
425.000000	97.683	8.6729
431.000000	97.649	9.0611
437.000000	97.667	9.5149
444.000000	97.612	9.8376
450.000000	97.650	10.2037
455.000000	97.633	10.1758
462.000000	97.626	10.6294
468.000000	97.645	10.8972
475.000000	97.679	11.2848
482.000000	97.670	11.7056
487.000000	97.639	11.8259
494.000000	97.645	12.0777
500.000000	97.659	12.4047
508.000000	97.682	12.6506
515.000000	97.681	13.0203
522.000000	97.680	13.2739
530.000000	97.683	13.7459
538.000000	97.701	14.0394
545.000000	97.724	14.1272
552.000000	97.722	14.4377
560.000000	97.731	14.8088
570.000000	97.720	14.9626
580.000000	97.736	15.3478
590.000000	97.725	15.7020
600.000000	97.769	16.1477
608.000000	97.747	16.2777
615.000000	97.800	16.6194
622.000000	97.783	16.7754
630.000000	97.832	17.0883
640.000000	97.833	17.2605
650.000000	97.852	17.6932
660.000000	97.820	17.9537
670.000000	97.866	18.1750
680.000000	97.860	18.6130
690.000000	97.895	18.8552
700.000000	97.918	19.1476
710.000000	97.947	19.3846
720.000000	97.906	19.6038
730.000000	97.926	19.8549
740.000000	97.953	20.2766
750.000000	97.949	20.5583
762.000000	97.951	20.8507
775.000000	97.915	21.0885
788.000000	97.946	21.5939
800.000000	97.960	21.9359
812.000000	97.943	22.3880
825.000000	97.903	22.7687
838.000000	97.919	23.3651
850.000000	97.908	23.9172
862.000000	97.900	24.2947
875.000000	97.889	24.7205
885.000000	97.891	25.3513
900.000000	97.868	25.8832
912.000000	97.868	26.6232
925.000000	97.862	27.5466
938.000000	97.850	28.1871
950.000000	97.856	28.9617
962.000000	97.866	29.7960
975.000000	97.872	30.5499
988.000000	97.878	31.6627
1000.000000	97.889	32.6130
1015.000000	97.950	34.0138
1030.000000	98.025	35.7995
1044.000000	98.169	37.0566
1060.000000	98.361	38.6273
1075.000000	98.604	39.6374
1090.000000	98.865	40.3756
1106.000000	99.096	41.0981
1120.000000	99.336	41.2113
1138.000000	99.614	41.2989
1150.000000	99.788	41.3245
1172.000000	100.036	40.9710
1180.000000	100.134	40.7228
1206.000000	100.380	40.2238
1220.000000	100.467	39.9785
1241.000000	100.620	39.5818
1250.000000	100.687	39.3786
1265.000000	100.751	39.0921
1280.000000	100.829	38.9595
1315.000000	100.974	38.7415
1320.000000	100.984	38.7633
1340.000000	101.048	38.7942
1360.000000	101.111	38.7454
1380.000000	101.192	38.8328
1400.000000	101.242	38.7433
1430.000000	101.339	39.0871
1450.000000	101.392	39.2381
1475.000000	101.487	39.5693
1500.000000	101.583	39.8576
1525.000000	101.660	40.0870
1550.000000	101.756	40.5542
1575.000000	101.856	40.8965
1600.000000	101.956	41.2315
1625.000000	102.068	41.5446
1650.000000	102.187	41.8655
1675.000000	102.293	42.2638
1700.000000	102.428	42.6056
1725.000000	102.546	42.9932
1750.000000	102.688	43.2061
1775.000000	102.812	43.5381
1800.000000	102.965	43.8371
1825.000000	103.116	44.0652
1850.000000	103.259	44.2690
1875.000000	103.418	44.4556
1900.000000	103.583	44.7005
1925.000000	103.733	44.7393
1950.000000	103.910	44.8687
1975.000000	104.082	44.9321
2000.000000	104.264	44.9479
2030.000000	104.498	44.9005
2060.000000	104.703	44.7722
2090.000000	104.937	44.6243
2120.000000	105.164	44.3544
2140.000000	105.324	44.0983
2180.000000	105.632	43.5345
2200.000000	105.784	43.0776
2240.000000	106.098	42.2328
2270.000000	106.342	41.4232
2300.000000	106.570	40.5444
2330.000000	106.789	39.5536
2360.000000	107.006	38.4186
2400.000000	107.274	36.6750
2430.000000	107.461	35.1756
2470.000000	107.690	33.1472
2500.000000	107.842	31.4431
2540.000000	108.006	29.0450
2580.000000	108.139	26.5645
2620.000000	108.210	23.8955
2650.000000	108.242	21.9631
2690.000000	108.227	19.3564
2720.000000	108.195	17.4591
2760.000000	108.117	15.0790
2800.000000	107.996	12.6905
2850.000000	107.791	10.0620
2900.000000	107.554	7.6971
2950.000000	107.285	5.6862
3000.000000	106.979	4.0682
3040.000000	106.729	2.9379
3070.000000	106.545	2.2921
3110.000000	106.292	1.6304
3150.000000	106.054	1.0284
3200.000000	105.750	0.5508
3250.000000	105.449	0.2220
3300.000000	105.160	0.3123
3350.000000	104.908	0.3805
3400.000000	104.661	0.6887
3450.000000	104.436	1.1495
3500.000000	104.224	1.7847
3550.000000	104.038	2.4084
3600.000000	103.856	3.1508
3650.000000	103.706	3.9984
3700.000000	103.579	4.9703
3750.000000	103.462	5.9724
3820.000000	103.329	7.4937
3870.000000	103.268	8.5604
3950.000000	103.219	10.3500
4000.000000	103.226	11.5930
4060.000000	103.248	13.0687
4120.000000	103.326	14.2803
4180.000000	103.429	15.5316
4250.000000	103.569	16.8213
4310.000000	103.720	17.8286
4370.000000	103.918	18.7966
4440.000000	104.172	19.7598
4500.000000	104.446	20.4374
4550.000000	104.707	20.8049
4620.000000	105.083	21.1304
4680.000000	105.475	20.9285
4750.000000	105.963	20.1234
4820.000000	106.499	18.6115
4870.000000	106.874	16.9597
4940.000000	107.382	13.6746
5000.000000	107.739	9.8547
5080.000000	107.986	3.7202
5150.000000	107.895	-1.3496
5220.000000	107.730	-4.8760
5300.000000	107.805	-8.5549
5380.000000	107.911	-14.6631
5450.000000	107.722	-21.2925
5520.000000	107.198	-27.7281
5600.000000	106.335	-33.7242
5700.000000	105.062	-38.8627
5800.000000	103.773	-41.6964
5900.000000	102.512	-42.6168
6000.000000	101.362	-42.4899
6080.000000	100.511	-41.7517
6150.000000	99.816	-40.7281
6220.000000	99.123	-39.2514
6300.000000	98.414	-37.5027
6400.000000	97.616	-34.5298
6500.000000	96.864	-31.6349
6600.000000	96.222	-28.0745
6700.000000	95.613	-25.4962
6800.000000	95.130	-21.8669
6900.000000	94.642	-18.4144
7000.000000	94.226	-15.0970
7100.000000	93.830	-11.2959
7200.000000	93.486	-7.9839
7300.000000	93.198	-4.2820
7400.000000	92.929	-0.8748
7500.000000	92.693	3.8384
7620.000000	92.703	7.9650
7750.000000	92.524	11.7821
7880.000000	92.435	16.6777
8000.000000	92.455	21.6324
8120.000000	92.626	25.7743
8250.000000	92.938	29.7242
8380.000000	93.091	34.0343
8500.000000	93.444	37.8752
8620.000000	93.814	40.9399
8750.000000	94.418	44.6777
8850.000000	94.957	47.5745
9000.000000	96.036	50.2224
9120.000000	97.025	51.1693
9250.000000	98.421	50.6648
9380.000000	100.005	47.1841
9500.000000	101.680	39.3417
9620.000000	103.127	26.3201
9750.000000	103.519	6.0542
9880.000000	102.255	-12.5345
10000.000000	100.336	-23.4475
10150.000000	97.852	-29.0400
10300.000000	95.752	-30.4880
10440.000000	94.036	-29.6836
10600.000000	92.527	-27.4523
10750.000000	91.145	-24.5325
10900.000000	89.992	-21.4322
11060.000000	89.011	-17.4534
11200.000000	88.038	-12.6196
11380.000000	87.315	-8.6906
11500.000000	86.593	-4.9346
11720.000000	85.946	2.8005
11800.000000	85.834	6.0303
12060.000000	85.402	14.8065
12200.000000	85.153	17.1156
12410.000000	85.034	23.9728
12500.000000	85.217	26.1122
12650.000000	85.414	30.0497
12800.000000	85.700	32.9619
13150.000000	87.221	39.1525
13200.000000	87.452	38.9756
13400.000000	88.821	37.1069
13600.000000	90.357	29.9355
13800.000000	91.427	12.9289
14000.000000	90.863	-8.6246
14300.000000	87.038	-29.9318
14500.000000	84.413	-32.9570
14750.000000	81.456	-34.0492
15000.000000	79.441	-29.3441
15250.000000	77.629	-25.2996
15500.000000	75.600	-18.8929
15750.000000	74.275	-9.7888
16000.000000	72.550	-6.4856
16250.000000	71.258	4.9611
16500.000000	71.143	16.5725
16750.000000	69.972	20.6448
17000.000000	70.800	24.8223
17250.000000	70.138	35.0288
17500.000000	70.771	46.7040
17750.000000	72.340	41.5788
18000.000000	72.916	42.7517
18250.000000	73.623	38.2364
18500.000000	74.513	23.5583
18750.000000	68.240	27.7358
19000.000000	73.353	62.1567
19250.000000	77.421	42.9318
19500.000000	79.243	17.3447
19750.000000	77.958	-8.4255
