* Measurement data measured by REW V5.31.1
* Source: EXCL: Micr√≥fono (Realtek(R) Audio), MICROPHONE (Volumen general), L, volume: 0,900. Timing signal peak level -12,1 dBFS, measurement signal peak level -11,2 dBFS
* Format: 512k Log Swept Sine, 1 sweep at -12,0 dBFS using an acoustic timing reference
* Dated: 14/09/2024 12:50:25 PM
* REW Settings:
*  C-weighting compensation: Off
*  Target level: 75.0 dB
* Note: Delay -0,0654 ms (-22 mm, -0,88 in) using estimated IR delay relative to Acoustic reference played from HEADPHONE R with no timing offset Clock adjustment: 19,0 ppm
* Measurement: 712 V10 d97 mic 1
* Smoothing: None
* Frequency Step: 1/48 octave
* Start Frequency: 20.000 Hz
*
* Freq(Hz)	SPL(dB)	Phase(degrees)
20.000000	92.636	101.5581
20.299999	92.790	100.3306
20.600000	92.926	99.0811
20.900000	93.042	97.8665
21.200001	93.140	96.7496
21.400000	93.199	96.0811
21.799999	93.314	94.9189
22.000000	93.374	94.4081
22.400000	93.503	93.4606
22.700001	93.606	92.7600
23.000000	93.708	92.0389
23.299999	93.805	91.3081
23.600000	93.895	90.5892
24.000000	94.009	89.6763
24.299999	94.096	89.0189
24.700001	94.217	88.1246
25.000000	94.311	87.3914
25.400000	94.427	86.3011
25.799999	94.520	85.1368
26.200001	94.590	84.0245
26.500000	94.635	83.2870
26.900000	94.704	82.4326
27.200001	94.770	81.8253
27.600000	94.875	80.9495
28.000000	94.980	79.9440
28.500000	95.082	78.6518
29.000000	95.165	77.6092
29.500000	95.277	76.8218
30.000000	95.432	75.9028
30.400000	95.546	74.8919
30.700001	95.600	74.0438
31.100000	95.622	73.0570
31.500000	95.618	72.4562
32.000000	95.657	72.1819
32.500000	95.780	71.8073
33.000000	95.909	70.8309
33.500000	95.956	69.5536
34.000000	95.937	68.6167
34.500000	95.954	68.0667
35.000000	96.035	67.3105
35.500000	96.096	66.0572
36.000000	96.077	64.8745
36.500000	96.064	64.3318
37.000000	96.183	63.9016
37.500000	96.378	62.4467
38.200001	96.363	58.9289
38.700001	96.040	57.5988
39.500000	95.761	60.4960
40.000000	96.116	62.2949
40.599998	96.665	61.1952
41.200001	96.856	58.3615
41.799999	96.768	56.6466
42.500000	96.759	56.3193
43.099998	96.878	55.5888
43.700001	96.924	54.4116
44.400002	96.919	53.6810
45.000000	97.002	53.3994
45.500000	97.106	52.8387
46.200001	97.190	51.7530
46.799999	97.202	51.1971
47.500000	97.256	51.0042
48.200001	97.339	50.5047
48.700001	97.340	49.9572
49.400002	97.263	49.7384
50.000000	97.273	49.9810
50.799999	97.375	49.1948
51.500000	97.332	47.8485
52.200001	97.287	47.0092
53.000000	97.314	45.4840
53.799999	97.249	44.6129
54.500000	97.481	44.7910
55.200001	97.784	42.7812
56.000000	97.607	41.8629
57.000000	98.144	44.9697
58.000000	97.999	41.5902
59.000000	97.882	55.5934
60.000000	100.629	51.1998
60.799999	100.162	37.1537
61.500000	98.278	35.6148
62.200001	97.842	43.1749
63.000000	98.259	41.8864
64.000000	97.594	39.7151
65.000000	97.762	39.6999
66.000000	97.660	36.5567
67.000000	97.761	36.6360
68.000000	97.936	34.9965
69.000000	97.946	35.1019
70.000000	98.062	35.1570
71.000000	98.061	34.9667
72.000000	98.020	34.7519
73.000000	97.982	34.3377
74.000000	97.943	33.6688
75.000000	97.968	33.1892
76.199997	98.036	32.0763
77.500000	98.053	31.5713
78.800003	98.092	31.3417
80.000000	98.117	31.1827
81.199997	98.112	30.5639
82.500000	98.068	30.1431
83.800003	98.127	29.3049
85.000000	98.110	28.7471
86.199997	98.186	28.4569
87.500000	98.204	28.2592
88.500000	98.264	28.0020
90.000000	98.201	27.4567
91.199997	98.156	26.7440
92.500000	98.053	27.2905
93.800003	98.258	26.4180
95.000000	98.190	25.7749
96.199997	98.280	25.3833
97.500000	98.254	25.0018
98.800003	98.280	24.5919
100.000000	98.249	24.5496
101.500000	98.287	23.9994
103.000000	98.270	23.6721
104.400002	98.286	23.2900
106.000000	98.310	22.9543
107.500000	98.305	22.6182
109.000000	98.314	22.4338
110.599998	98.310	21.9539
112.000000	98.292	21.8110
113.800003	98.302	21.2883
115.000000	98.308	21.1906
117.199997	98.320	20.6642
118.000000	98.337	20.5632
120.599998	98.278	20.1847
122.000000	98.341	19.8903
124.099998	98.335	19.1857
125.000000	98.293	18.9708
126.500000	98.316	18.9990
128.000000	98.301	18.6683
131.500000	98.311	17.9857
132.000000	98.310	17.9313
134.000000	98.320	17.6486
136.000000	98.339	17.5022
138.000000	98.342	17.2578
140.000000	98.385	17.3458
143.000000	98.284	16.3746
145.000000	98.291	16.1483
147.500000	98.305	15.8157
150.000000	98.308	15.7467
152.500000	98.297	15.5131
155.000000	98.280	15.0857
157.500000	98.262	14.8229
160.000000	98.270	14.3973
162.500000	98.249	14.1630
165.000000	98.272	13.7988
167.500000	98.286	13.6528
170.000000	98.262	13.5593
172.500000	98.237	13.2230
175.000000	98.229	13.0590
177.500000	98.208	12.9902
180.000000	98.128	12.6808
182.500000	98.189	12.4698
185.000000	98.189	12.3886
187.500000	98.169	12.1453
190.000000	98.201	11.8140
192.500000	98.153	11.5529
195.000000	98.155	11.5048
197.500000	98.134	11.3575
200.000000	98.121	11.0739
203.000000	98.126	10.9885
206.000000	98.102	10.8660
209.000000	98.066	10.6284
212.000000	98.034	10.6563
214.000000	98.077	10.3998
218.000000	98.040	10.2299
220.000000	98.031	10.0715
224.000000	98.026	9.9252
227.000000	97.981	9.9781
230.000000	97.943	9.4842
233.000000	97.984	9.2432
236.000000	97.869	8.8357
240.000000	97.890	9.1625
243.000000	97.869	9.0131
247.000000	97.843	9.0492
250.000000	97.836	8.9394
254.000000	97.797	8.5955
258.000000	97.773	8.9178
262.000000	97.745	8.9099
265.000000	97.657	8.6816
269.000000	97.668	8.9575
272.000000	97.664	9.1123
276.000000	97.604	9.1361
280.000000	97.657	9.5246
285.000000	97.673	9.1388
290.000000	97.638	8.9423
295.000000	97.639	8.7716
300.000000	97.479	9.1189
304.000000	97.579	8.8047
307.000000	97.546	8.6113
311.000000	97.519	8.4107
315.000000	97.488	8.5270
320.000000	97.442	8.3659
325.000000	97.389	8.5148
330.000000	97.328	8.7888
335.000000	97.254	8.9864
340.000000	97.185	9.3335
345.000000	97.137	9.6870
350.000000	97.170	9.8656
355.000000	97.226	10.2960
360.000000	97.274	10.2574
365.000000	97.265	10.5457
370.000000	97.273	10.2067
375.000000	97.251	10.5312
382.000000	97.215	10.1117
387.000000	97.347	10.2914
395.000000	97.207	10.3263
400.000000	97.138	10.1876
406.000000	97.141	10.4591
412.000000	97.102	10.7323
418.000000	97.058	10.9537
425.000000	97.071	10.9763
431.000000	97.038	11.1238
437.000000	97.082	11.5745
444.000000	97.039	11.7046
450.000000	96.968	11.7126
455.000000	96.990	11.8651
462.000000	96.849	12.6886
468.000000	96.953	12.3052
475.000000	96.948	12.3868
482.000000	96.880	12.7859
487.000000	96.852	13.0448
494.000000	96.854	12.9977
500.000000	96.877	13.3754
508.000000	96.831	13.2587
515.000000	96.871	13.7095
522.000000	96.790	13.9760
530.000000	96.796	14.2398
538.000000	96.824	14.2635
545.000000	96.780	14.8107
552.000000	96.804	15.1550
560.000000	96.745	15.3271
570.000000	96.716	15.6724
580.000000	96.721	16.0559
590.000000	96.728	16.6818
600.000000	96.648	16.4559
608.000000	96.675	17.0110
615.000000	96.691	17.1725
622.000000	96.640	17.3514
630.000000	96.617	17.6486
640.000000	96.657	18.1481
650.000000	96.588	18.3608
660.000000	96.629	19.0175
670.000000	96.591	18.9628
680.000000	96.556	19.3665
690.000000	96.553	19.8870
700.000000	96.524	20.0601
710.000000	96.500	20.5521
720.000000	96.517	21.0124
730.000000	96.448	21.1781
740.000000	96.444	21.5139
750.000000	96.428	22.1068
762.000000	96.394	22.5399
775.000000	96.352	23.0944
788.000000	96.294	23.6384
800.000000	96.284	24.0571
812.000000	96.234	24.9708
825.000000	96.207	25.2644
838.000000	96.159	26.0551
850.000000	96.129	26.7393
862.000000	96.095	27.5490
875.000000	96.058	28.3088
885.000000	96.014	28.8690
900.000000	95.959	29.5797
912.000000	95.953	30.5387
925.000000	95.908	31.5546
938.000000	95.889	32.8533
950.000000	95.862	33.7531
962.000000	95.860	34.7633
975.000000	95.812	35.9719
988.000000	95.828	37.4020
1000.000000	95.793	39.0271
1015.000000	95.855	40.8622
1030.000000	95.932	42.1607
1044.000000	96.074	43.9686
1060.000000	96.285	45.6356
1075.000000	96.478	47.1523
1090.000000	96.704	48.4330
1106.000000	96.959	49.4226
1120.000000	97.140	49.6797
1138.000000	97.400	50.2056
1150.000000	97.575	50.4281
1172.000000	97.817	50.4615
1180.000000	97.866	50.4235
1206.000000	98.093	50.3607
1220.000000	98.205	50.5645
1241.000000	98.301	50.4984
1250.000000	98.329	50.5764
1265.000000	98.420	50.4874
1280.000000	98.497	50.6743
1315.000000	98.602	51.1232
1320.000000	98.631	50.9847
1340.000000	98.687	51.4655
1360.000000	98.747	51.7568
1380.000000	98.831	52.0994
1400.000000	98.878	52.5712
1430.000000	98.971	53.2914
1450.000000	99.029	53.7424
1475.000000	99.114	54.5284
1500.000000	99.217	55.1632
1525.000000	99.307	55.9805
1550.000000	99.423	56.6365
1575.000000	99.532	57.4028
1600.000000	99.637	58.1637
1625.000000	99.760	58.9564
1650.000000	99.862	59.5094
1675.000000	99.997	60.1033
1700.000000	100.139	61.0587
1725.000000	100.280	61.6826
1750.000000	100.440	62.4346
1775.000000	100.600	62.9831
1800.000000	100.734	63.6257
1825.000000	100.931	64.1497
1850.000000	101.073	64.7093
1875.000000	101.260	65.1979
1900.000000	101.411	65.8420
1925.000000	101.606	66.1519
1950.000000	101.783	66.4842
1975.000000	101.976	66.8678
2000.000000	102.182	67.0880
2030.000000	102.426	67.4744
2060.000000	102.675	67.6029
2090.000000	102.906	67.7822
2120.000000	103.167	67.7495
2140.000000	103.327	67.6481
2180.000000	103.663	67.4198
2200.000000	103.834	67.1074
2240.000000	104.171	66.6339
2270.000000	104.410	66.0001
2300.000000	104.666	65.3263
2330.000000	104.898	64.6004
2360.000000	105.129	63.6568
2400.000000	105.408	62.2058
2430.000000	105.601	61.0293
2470.000000	105.828	59.2257
2500.000000	105.965	57.8318
2540.000000	106.125	55.7932
2580.000000	106.236	53.6654
2620.000000	106.308	51.5455
2650.000000	106.334	49.7696
2690.000000	106.331	47.7845
2720.000000	106.284	46.1591
2760.000000	106.219	44.3254
2800.000000	106.105	42.6217
2850.000000	105.939	40.6775
2900.000000	105.718	39.0959
2950.000000	105.488	37.8447
3000.000000	105.227	36.9028
3040.000000	105.043	36.3294
3070.000000	104.895	35.8722
3110.000000	104.690	35.7058
3150.000000	104.484	35.6535
3200.000000	104.267	35.6230
3250.000000	104.023	35.9406
3300.000000	103.818	36.3715
3350.000000	103.636	36.8981
3400.000000	103.441	37.5260
3450.000000	103.303	38.4097
3500.000000	103.141	39.3812
3550.000000	103.031	40.2327
3600.000000	102.919	41.3672
3650.000000	102.819	42.5111
3700.000000	102.772	43.5273
3750.000000	102.718	44.7575
3820.000000	102.675	46.3255
3870.000000	102.652	47.5604
3950.000000	102.693	49.4693
4000.000000	102.731	50.7184
4060.000000	102.803	52.2341
4120.000000	102.933	53.4677
4180.000000	103.069	54.6950
4250.000000	103.293	55.9630
4310.000000	103.491	56.7672
4370.000000	103.705	57.6934
4440.000000	104.008	58.4484
4500.000000	104.298	58.7229
4550.000000	104.561	58.9744
4620.000000	104.962	58.8940
4680.000000	105.344	58.3529
4750.000000	105.810	57.1346
4820.000000	106.278	55.0709
4870.000000	106.594	53.0473
4940.000000	107.004	49.1909
5000.000000	107.262	45.1405
5080.000000	107.304	39.0230
5150.000000	107.094	34.3324
5220.000000	106.847	31.3558
5300.000000	106.827	27.7560
5380.000000	106.780	22.0142
5450.000000	106.454	16.0344
5520.000000	105.864	10.3016
5600.000000	104.979	5.1169
5700.000000	103.680	0.8528
5800.000000	102.357	-1.5082
5900.000000	101.077	-2.2965
6000.000000	99.873	-1.7573
6080.000000	98.932	-0.8134
6150.000000	98.229	0.4889
6220.000000	97.437	1.7794
6300.000000	96.732	3.7108
6400.000000	95.814	6.5659
6500.000000	94.983	9.7037
6600.000000	94.219	13.1378
6700.000000	93.550	17.0339
6800.000000	92.842	20.6626
6900.000000	92.276	24.6539
7000.000000	91.674	28.5244
7100.000000	91.198	32.9145
7200.000000	90.637	36.8084
7300.000000	90.180	41.5243
7400.000000	89.800	46.6979
7500.000000	89.335	51.7063
7620.000000	89.336	57.2828
7750.000000	88.929	62.4949
7880.000000	88.715	68.5750
8000.000000	88.654	74.9449
8120.000000	88.649	79.7313
8250.000000	88.906	84.4954
8380.000000	89.017	89.9365
8500.000000	89.373	93.9146
8620.000000	89.835	97.8794
8750.000000	90.334	101.6503
8850.000000	90.970	103.9348
9000.000000	92.118	105.3779
9120.000000	93.168	104.0098
9250.000000	94.535	97.7912
9380.000000	95.607	84.5453
9500.000000	95.277	67.0552
9620.000000	93.705	51.9624
9750.000000	91.104	42.8219
9880.000000	88.628	39.9515
10000.000000	86.444	41.4551
10150.000000	83.931	46.3787
10300.000000	81.766	51.6581
10440.000000	80.110	62.4482
10600.000000	77.639	69.9316
10750.000000	76.338	79.6455
10900.000000	75.001	96.4841
11060.000000	73.580	112.5128
11200.000000	72.474	124.1249
11380.000000	73.006	145.4813
11500.000000	74.054	159.1478
11720.000000	75.290	179.7146
11800.000000	76.403	-178.3456
12060.000000	78.321	-177.3009
12200.000000	78.391	-176.5588
12410.000000	78.346	-164.0385
12500.000000	78.485	-157.3211
12650.000000	80.036	-152.8578
12800.000000	81.311	-152.6604
13150.000000	83.659	-149.8799
13200.000000	84.142	-151.7551
13400.000000	86.023	-155.4375
13600.000000	87.936	-168.0706
13800.000000	88.457	171.0338
14000.000000	86.792	149.0038
14300.000000	82.662	137.1529
14500.000000	80.525	137.6788
14750.000000	78.029	139.5837
15000.000000	76.065	148.6461
15250.000000	73.994	152.7654
15500.000000	72.623	161.6208
15750.000000	71.695	167.0343
16000.000000	71.520	169.7717
16250.000000	70.460	179.6054
16500.000000	68.484	-174.8366
16750.000000	68.506	-158.0043
17000.000000	68.019	-152.4654
17250.000000	67.986	-149.4202
17500.000000	69.055	-144.0708
17750.000000	70.121	-141.6670
18000.000000	70.754	-151.5487
18250.000000	69.339	-162.3388
18500.000000	69.529	-171.1603
18750.000000	64.043	-153.5265
19000.000000	69.148	-140.0990
19250.000000	70.724	-162.2884
19500.000000	69.649	-179.3148
19750.000000	66.747	159.2994
