* Measurement data measured by REW V5.31.1
* Source: EXCL: Micr√≥fono (Realtek(R) Audio), MICROPHONE (Volumen general), L, volume: 0,900. Timing signal peak level -10,2 dBFS, measurement signal peak level -8,7 dBFS
* Format: 512k Log Swept Sine, 1 sweep at -12,0 dBFS using an acoustic timing reference
* Dated: 12/09/2024 12:28:52 AM
* REW Settings:
*  C-weighting compensation: Off
*  Target level: 75.0 dB
* Note: Delay -0,1184 ms (-41 mm, -1,6 in) using estimated IR delay relative to Acoustic reference played from HEADPHONE R with no timing offset Clock adjustment: 19,6 ppm
* Measurement: 712 flaco mic 2
* Smoothing: None
* Frequency Step: 1/48 octave
* Start Frequency: 20.000 Hz
*
* Freq(Hz)	SPL(dB)	Phase(degrees)
20.000000	93.422	98.4827
20.299999	93.576	97.5203
20.600000	93.724	96.4240
20.900000	93.853	95.2293
21.200001	93.953	94.0289
21.400000	94.005	93.2882
21.799999	94.093	92.0132
22.000000	94.138	91.4852
22.400000	94.247	90.5776
22.700001	94.352	89.9054
23.000000	94.468	89.1336
23.299999	94.581	88.2397
23.600000	94.678	87.2648
24.000000	94.778	85.9583
24.299999	94.836	85.0679
24.700001	94.910	84.0450
25.000000	94.973	83.3601
25.400000	95.073	82.4533
25.799999	95.180	81.4703
26.200001	95.277	80.4346
26.500000	95.341	79.6831
26.900000	95.421	78.7738
27.200001	95.486	78.1572
27.600000	95.585	77.3597
28.000000	95.691	76.5053
28.500000	95.813	75.3388
29.000000	95.907	74.2036
29.500000	95.984	73.2263
30.000000	96.067	72.3661
30.400000	96.137	71.6746
30.700001	96.188	71.1314
31.100000	96.248	70.3882
31.500000	96.299	69.6480
32.000000	96.353	68.7404
32.500000	96.398	67.8529
33.000000	96.435	67.0298
33.500000	96.480	66.3120
34.000000	96.548	65.6188
34.500000	96.637	64.7893
35.000000	96.717	63.7932
35.500000	96.769	62.8035
36.000000	96.807	62.0110
36.500000	96.857	61.4236
37.000000	96.930	60.8884
37.500000	97.011	60.2808
38.200001	97.100	59.3315
38.700001	97.135	58.7047
39.500000	97.173	57.9255
40.000000	97.202	57.4725
40.599998	97.237	56.8141
41.200001	97.258	56.0700
41.799999	97.279	55.3329
42.500000	97.323	54.3817
43.099998	97.361	53.4697
43.700001	97.402	52.6680
44.400002	97.487	51.8594
45.000000	97.574	51.1195
45.500000	97.633	50.5668
46.200001	97.706	50.0382
46.799999	97.766	49.6860
47.500000	97.804	49.3659
48.200001	97.826	49.1215
48.700001	97.824	48.8182
49.400002	97.771	48.3658
50.000000	97.745	48.0473
50.799999	97.744	46.8213
51.500000	97.653	45.6417
52.200001	97.705	45.1682
53.000000	97.922	42.9660
53.799999	97.794	41.5596
54.500000	98.039	43.2912
55.200001	98.566	41.7083
56.000000	98.202	40.1584
57.000000	98.669	47.2347
58.000000	98.409	39.8823
59.000000	96.473	66.3585
60.000000	101.598	65.6102
60.799999	101.656	43.7642
61.500000	99.161	35.3036
62.200001	97.895	44.5274
63.000000	98.666	43.4528
64.000000	97.781	37.3626
65.000000	97.971	38.8542
66.000000	98.125	34.5298
67.000000	98.204	35.1443
68.000000	98.471	34.0638
69.000000	98.472	34.6609
70.000000	98.560	34.7775
71.000000	98.476	34.7778
72.000000	98.432	34.3962
73.000000	98.355	33.6243
74.000000	98.326	32.8782
75.000000	98.377	32.2773
76.199997	98.461	31.3851
77.500000	98.538	31.2150
78.800003	98.573	30.7956
80.000000	98.541	30.7625
81.199997	98.542	30.3973
82.500000	98.532	29.7757
83.800003	98.574	28.9686
85.000000	98.585	28.3886
86.199997	98.611	28.0765
87.500000	98.633	27.9543
88.500000	98.647	27.6760
90.000000	98.616	27.2937
91.199997	98.615	26.9285
92.500000	98.624	26.4298
93.800003	98.622	25.9715
95.000000	98.642	25.7951
96.199997	98.656	25.4912
97.500000	98.674	25.2891
98.800003	98.660	24.8435
100.000000	98.665	24.7427
101.500000	98.671	24.1744
103.000000	98.701	23.9825
104.400002	98.697	23.4153
106.000000	98.705	23.2656
107.500000	98.705	22.9536
109.000000	98.720	22.7343
110.599998	98.706	22.4287
112.000000	98.722	22.1232
113.800003	98.714	21.6608
115.000000	98.702	21.3685
117.199997	98.716	21.0457
118.000000	98.738	21.0735
120.599998	98.745	20.2874
122.000000	98.735	20.2996
124.099998	98.720	19.8067
125.000000	98.707	19.6706
126.500000	98.705	19.5098
128.000000	98.724	19.3112
131.500000	98.730	18.8307
132.000000	98.729	18.7652
134.000000	98.704	18.5214
136.000000	98.700	18.2468
138.000000	98.708	17.8499
140.000000	98.713	17.7359
143.000000	98.701	17.1795
145.000000	98.660	17.1885
147.500000	98.648	16.6908
150.000000	98.640	16.6784
152.500000	98.620	16.4981
155.000000	98.620	16.5165
157.500000	98.597	16.0744
160.000000	98.594	15.3895
162.500000	98.633	15.0540
165.000000	98.724	15.7262
167.500000	98.523	15.2865
170.000000	98.498	15.3620
172.500000	98.684	15.3293
175.000000	98.563	14.9460
177.500000	98.561	14.9065
180.000000	98.433	14.5951
182.500000	98.545	14.5644
185.000000	98.561	14.3744
187.500000	98.574	14.4383
190.000000	98.562	14.1595
192.500000	98.544	14.1186
195.000000	98.594	13.9636
197.500000	98.538	13.7409
200.000000	98.540	13.5488
203.000000	98.546	13.4363
206.000000	98.534	13.3179
209.000000	98.492	13.3927
212.000000	98.522	12.9071
214.000000	98.370	13.1148
218.000000	98.464	12.7899
220.000000	98.469	12.8992
224.000000	98.446	12.7719
227.000000	98.407	12.5406
230.000000	98.413	12.3305
233.000000	98.405	12.4947
236.000000	98.349	12.3477
240.000000	98.357	12.2326
243.000000	98.319	12.0336
247.000000	98.327	12.0191
250.000000	98.286	11.9674
254.000000	98.293	11.8624
258.000000	98.248	11.7233
262.000000	98.222	11.8439
265.000000	98.204	11.9878
269.000000	98.152	11.8164
272.000000	98.162	11.7703
276.000000	98.125	11.7931
280.000000	98.119	11.9739
285.000000	97.996	12.1438
290.000000	98.047	11.9389
295.000000	97.995	12.1640
300.000000	97.818	12.5744
304.000000	97.985	12.0460
307.000000	97.991	12.1291
311.000000	97.933	12.0879
315.000000	97.943	12.3382
320.000000	97.918	12.2875
325.000000	97.919	12.3785
330.000000	97.890	12.4453
335.000000	97.850	12.4639
340.000000	97.823	12.5342
345.000000	97.829	12.3619
350.000000	97.788	12.5306
355.000000	97.712	12.6357
360.000000	97.704	12.7402
365.000000	97.703	12.9609
370.000000	97.617	13.0113
375.000000	97.584	12.9494
382.000000	97.586	13.1540
387.000000	97.543	13.3695
395.000000	97.513	13.6285
400.000000	97.454	13.7396
406.000000	97.457	13.9408
412.000000	97.415	13.9060
418.000000	97.366	14.3612
425.000000	97.338	14.4068
431.000000	97.287	14.6917
437.000000	97.249	14.7702
444.000000	97.190	15.0300
450.000000	97.164	15.2826
455.000000	97.137	15.4108
462.000000	97.101	15.8577
468.000000	97.072	16.0477
475.000000	97.019	16.4171
482.000000	96.987	16.5942
487.000000	96.978	16.9863
494.000000	96.937	17.2274
500.000000	96.899	17.5804
508.000000	96.865	17.8879
515.000000	96.831	18.0524
522.000000	96.806	18.4565
530.000000	96.751	18.9697
538.000000	96.720	19.3261
545.000000	96.664	19.7704
552.000000	96.657	20.3192
560.000000	96.591	20.4920
570.000000	96.537	21.0928
580.000000	96.496	21.4964
590.000000	96.448	22.1583
600.000000	96.412	22.7119
608.000000	96.349	23.1064
615.000000	96.320	23.4664
622.000000	96.293	23.9160
630.000000	96.236	24.3489
640.000000	96.209	25.1548
650.000000	96.143	25.4305
660.000000	96.076	25.8546
670.000000	96.065	26.8422
680.000000	96.013	27.5817
690.000000	95.983	28.2262
700.000000	95.934	28.8261
710.000000	95.853	29.5892
720.000000	95.829	30.2602
730.000000	95.777	31.1231
740.000000	95.722	31.6494
750.000000	95.693	32.4861
762.000000	95.628	33.3736
775.000000	95.536	34.3053
788.000000	95.509	35.4310
800.000000	95.473	36.4762
812.000000	95.401	37.3368
825.000000	95.353	38.5487
838.000000	95.282	39.7124
850.000000	95.228	40.6650
862.000000	95.187	41.8876
875.000000	95.109	43.2893
885.000000	95.094	44.1807
900.000000	95.064	45.4402
912.000000	95.020	47.1114
925.000000	94.981	48.2722
938.000000	94.979	49.8738
950.000000	94.921	51.4563
962.000000	94.914	53.0234
975.000000	94.925	54.8943
988.000000	94.935	56.5057
1000.000000	95.000	58.0948
1015.000000	95.026	59.9658
1030.000000	95.126	62.1455
1044.000000	95.221	64.1530
1060.000000	95.377	66.4646
1075.000000	95.580	68.4783
1090.000000	95.787	70.0020
1106.000000	96.009	71.4482
1120.000000	96.215	72.4434
1138.000000	96.484	73.5547
1150.000000	96.630	73.9468
1172.000000	96.888	74.8144
1180.000000	96.946	75.2223
1206.000000	97.196	75.8902
1220.000000	97.321	76.0758
1241.000000	97.443	76.7894
1250.000000	97.499	77.0679
1265.000000	97.589	77.5264
1280.000000	97.644	78.0599
1315.000000	97.798	79.4332
1320.000000	97.823	79.8408
1340.000000	97.867	80.5669
1360.000000	97.951	81.4182
1380.000000	98.064	82.3769
1400.000000	98.110	83.2060
1430.000000	98.213	84.7226
1450.000000	98.280	85.5559
1475.000000	98.389	86.9680
1500.000000	98.480	88.1701
1525.000000	98.584	89.6498
1550.000000	98.714	91.0166
1575.000000	98.822	92.4695
1600.000000	98.961	93.8381
1625.000000	99.085	95.0508
1650.000000	99.205	96.3878
1675.000000	99.361	97.7705
1700.000000	99.528	98.9309
1725.000000	99.674	100.3515
1750.000000	99.813	101.4932
1775.000000	99.985	102.6750
1800.000000	100.153	104.0447
1825.000000	100.355	105.0543
1850.000000	100.495	106.2167
1875.000000	100.698	107.3326
1900.000000	100.875	108.3945
1925.000000	101.057	109.4771
1950.000000	101.264	110.3459
1975.000000	101.471	111.2394
2000.000000	101.699	112.1865
2030.000000	101.935	113.1801
2060.000000	102.218	114.0650
2090.000000	102.462	114.8241
2120.000000	102.719	115.5468
2140.000000	102.885	115.8492
2180.000000	103.251	116.5540
2200.000000	103.411	116.7323
2240.000000	103.769	117.0567
2270.000000	104.012	117.1036
2300.000000	104.282	117.2357
2330.000000	104.526	117.1915
2360.000000	104.762	116.8894
2400.000000	105.052	116.3080
2430.000000	105.256	115.8402
2470.000000	105.493	114.9633
2500.000000	105.645	114.1890
2540.000000	105.813	113.0949
2580.000000	105.947	111.9261
2620.000000	106.034	110.8378
2650.000000	106.052	109.8080
2690.000000	106.066	108.6835
2720.000000	106.054	107.9291
2760.000000	105.993	107.0506
2800.000000	105.895	106.2295
2850.000000	105.752	105.5031
2900.000000	105.572	105.2162
2950.000000	105.362	105.1482
3000.000000	105.146	105.3905
3040.000000	104.987	105.7498
3070.000000	104.862	106.0653
3110.000000	104.693	106.8131
3150.000000	104.515	107.6823
3200.000000	104.332	108.9088
3250.000000	104.133	110.4137
3300.000000	103.978	111.7961
3350.000000	103.822	113.6008
3400.000000	103.685	115.5766
3450.000000	103.574	117.3880
3500.000000	103.481	119.4346
3550.000000	103.402	121.5743
3600.000000	103.356	123.6085
3650.000000	103.317	125.7986
3700.000000	103.318	128.0255
3750.000000	103.344	130.2254
3820.000000	103.352	133.4465
3870.000000	103.396	135.7290
3950.000000	103.523	139.2492
4000.000000	103.636	141.5506
4060.000000	103.790	144.0401
4120.000000	103.957	146.5468
4180.000000	104.183	149.0137
4250.000000	104.456	151.5660
4310.000000	104.727	153.6569
4370.000000	105.040	155.6033
4440.000000	105.431	157.6714
4500.000000	105.806	159.1628
4550.000000	106.121	160.1461
4620.000000	106.609	161.0627
4680.000000	107.058	161.5339
4750.000000	107.591	161.3600
4820.000000	108.150	160.3340
4870.000000	108.531	159.1164
4940.000000	109.016	156.4527
5000.000000	109.352	153.4191
5080.000000	109.571	148.3319
5150.000000	109.506	143.7558
5220.000000	109.221	140.0751
5300.000000	108.900	137.3731
5380.000000	108.728	134.6104
5450.000000	108.519	130.7947
5520.000000	108.083	126.5659
5600.000000	107.327	122.5760
5700.000000	106.176	119.3814
5800.000000	104.971	118.3448
5900.000000	103.754	118.7048
6000.000000	102.615	120.0944
6080.000000	101.752	121.7957
6150.000000	100.994	123.8235
6220.000000	100.316	126.0498
6300.000000	99.545	128.7107
6400.000000	98.660	132.7574
6500.000000	97.738	137.2434
6600.000000	96.944	142.0108
6700.000000	96.205	146.8701
6800.000000	95.523	151.8811
6900.000000	94.862	158.0980
7000.000000	94.255	163.6351
7100.000000	93.752	169.5196
7200.000000	93.284	175.6061
7300.000000	92.788	-178.4607
7400.000000	92.372	-172.3956
7500.000000	92.022	-165.0958
7620.000000	91.934	-158.2709
7750.000000	91.613	-150.9615
7880.000000	91.241	-142.3245
8000.000000	91.335	-134.0821
8120.000000	91.334	-127.2231
8250.000000	91.471	-119.2058
8380.000000	91.857	-111.2886
8500.000000	92.393	-104.5500
8620.000000	93.112	-98.3986
8750.000000	94.259	-93.6048
8850.000000	95.358	-91.9059
9000.000000	97.450	-95.7894
9120.000000	98.892	-108.2317
9250.000000	98.704	-130.2329
9380.000000	96.216	-146.8040
9500.000000	93.342	-151.8826
9620.000000	90.776	-151.8525
9750.000000	88.270	-148.0344
9880.000000	86.249	-139.9457
10000.000000	84.445	-134.2545
10150.000000	82.378	-124.7062
10300.000000	80.546	-114.0545
10440.000000	79.243	-104.9674
10600.000000	77.476	-91.2879
10750.000000	75.743	-80.0239
10900.000000	74.353	-67.6178
11060.000000	72.330	-48.2209
11200.000000	70.895	-31.8194
11380.000000	69.616	0.3977
11500.000000	69.728	21.8584
11720.000000	70.418	56.8043
11800.000000	72.242	73.9860
12060.000000	76.591	97.3511
12200.000000	78.960	103.3637
12410.000000	81.688	101.7736
12500.000000	81.691	98.4395
12650.000000	81.643	108.1635
12800.000000	83.883	117.8531
13150.000000	87.802	114.3444
13200.000000	88.228	112.8741
13400.000000	90.205	102.3798
13600.000000	91.079	82.0178
13800.000000	89.487	63.2990
14000.000000	86.628	55.3792
14300.000000	82.714	57.6419
14500.000000	80.878	64.1893
14750.000000	78.434	76.0647
15000.000000	76.625	86.1654
15250.000000	75.254	96.4475
15500.000000	73.686	107.9991
15750.000000	72.166	121.9604
16000.000000	72.355	138.5481
16250.000000	71.849	154.5672
16500.000000	72.256	162.6420
16750.000000	71.753	178.0401
17000.000000	72.895	-173.8602
17250.000000	74.350	-163.5043
17500.000000	75.253	-159.3724
17750.000000	76.840	-154.1882
18000.000000	78.148	-161.6155
18250.000000	79.015	-173.9171
18500.000000	77.944	165.2062
18750.000000	72.330	160.0886
19000.000000	74.927	163.6678
19250.000000	69.484	148.7604
19500.000000	67.498	175.0592
19750.000000	68.155	-175.2162
