* Measurement data measured by REW V5.31.1
* Source: EXCL: Micr√≥fono (Realtek(R) Audio), MICROPHONE (Volumen general), L, volume: 0,900. Timing signal peak level -11,2 dBFS, measurement signal peak level -10,5 dBFS
* Format: 512k Log Swept Sine, 1 sweep at -12,0 dBFS using an acoustic timing reference
* Dated: 13/09/2024 09:59:48 PM
* REW Settings:
*  C-weighting compensation: Off
*  Target level: 75.0 dB
* Note: Delay -0,0326 ms (-11 mm, -0,44 in) using estimated IR delay relative to Acoustic reference played from HEADPHONE R with no timing offset Clock adjustment: 18,6 ppm
* Measurement: V8 mic 1
* Smoothing: None
* Frequency Step: 1/48 octave
* Start Frequency: 20.000 Hz
*
* Freq(Hz)	SPL(dB)	Phase(degrees)
20.000000	92.391	80.9456
20.299999	92.488	79.8676
20.600000	92.574	78.8316
20.900000	92.652	77.8531
21.200001	92.725	76.9268
21.400000	92.771	76.3289
21.799999	92.854	75.1811
22.000000	92.891	74.6401
22.400000	92.953	73.6640
22.700001	92.996	73.0568
23.000000	93.046	72.5582
23.299999	93.112	72.1149
23.600000	93.193	71.6536
24.000000	93.316	70.9009
24.299999	93.405	70.1978
24.700001	93.500	69.1297
25.000000	93.548	68.3211
25.400000	93.588	67.3521
25.799999	93.621	66.5637
26.200001	93.666	65.9020
26.500000	93.712	65.4192
26.900000	93.785	64.7212
27.200001	93.842	64.1365
27.600000	93.911	63.2899
28.000000	93.967	62.4188
28.500000	94.020	61.3989
29.000000	94.068	60.5578
29.500000	94.135	59.8868
30.000000	94.238	59.1949
30.400000	94.332	58.4724
30.700001	94.394	57.8129
31.100000	94.446	56.8764
31.500000	94.463	56.0453
32.000000	94.464	55.3669
32.500000	94.496	55.0206
33.000000	94.579	54.6336
33.500000	94.673	53.9547
34.000000	94.732	53.0951
34.500000	94.753	52.3458
35.000000	94.770	51.8187
35.500000	94.812	51.3616
36.000000	94.868	50.7781
36.500000	94.911	50.0643
37.000000	94.927	49.3978
37.500000	94.937	48.9289
38.200001	94.995	48.4864
38.700001	95.072	48.0454
39.500000	95.168	46.9624
40.000000	95.191	46.3302
40.599998	95.215	45.8011
41.200001	95.263	45.2925
41.799999	95.301	44.6324
42.500000	95.307	43.9449
43.099998	95.321	43.5638
43.700001	95.361	43.1001
44.400002	95.394	42.3592
45.000000	95.406	41.7915
45.500000	95.428	41.3729
46.200001	95.467	40.6884
46.799999	95.483	40.1196
47.500000	95.510	39.7328
48.200001	95.587	39.3596
48.700001	95.646	38.8748
49.400002	95.666	38.0555
50.000000	95.629	37.6962
50.799999	95.634	37.7747
51.500000	95.701	37.3896
52.200001	95.674	36.6558
53.000000	95.635	36.6634
53.799999	95.769	35.9897
54.500000	95.727	34.5284
55.200001	95.641	34.6824
56.000000	95.940	34.4426
57.000000	95.881	31.6081
58.000000	96.161	34.9665
59.000000	97.167	28.8710
60.000000	95.950	22.6384
60.799999	95.404	30.0968
61.500000	96.106	32.3540
62.200001	96.244	30.0269
63.000000	95.974	30.5522
64.000000	96.169	31.1883
65.000000	96.031	29.9790
66.000000	96.006	30.2887
67.000000	96.033	29.3143
68.000000	96.036	28.6908
69.000000	96.042	27.8972
70.000000	96.048	27.7335
71.000000	96.124	27.4189
72.000000	96.143	26.9552
73.000000	96.145	26.7211
74.000000	96.151	26.3574
75.000000	96.125	26.0900
76.199997	96.155	25.7996
77.500000	96.196	25.2764
78.800003	96.189	24.4832
80.000000	96.243	24.6948
81.199997	96.232	23.3941
82.500000	96.149	24.7081
83.800003	96.335	23.8829
85.000000	96.309	23.5897
86.199997	96.301	22.6968
87.500000	96.255	22.7507
88.500000	96.268	22.2471
90.000000	96.264	22.0717
91.199997	96.270	21.5049
92.500000	96.262	21.3021
93.800003	96.296	21.0782
95.000000	96.312	20.5895
96.199997	96.301	20.4502
97.500000	96.316	20.1633
98.800003	96.323	19.9286
100.000000	96.303	19.6222
101.500000	96.295	19.4224
103.000000	96.288	19.3337
104.400002	96.311	18.9203
106.000000	96.319	18.4996
107.500000	96.293	18.1407
109.000000	96.305	18.0320
110.599998	96.335	17.7737
112.000000	96.326	17.5577
113.800003	96.339	17.2452
115.000000	96.321	17.1353
117.199997	96.278	16.9472
118.000000	96.367	17.3723
120.599998	96.287	15.7886
122.000000	96.319	16.2341
124.099998	96.340	15.9154
125.000000	96.296	15.7542
126.500000	96.316	15.8114
128.000000	96.301	15.4557
131.500000	96.332	15.0198
132.000000	96.326	14.9991
134.000000	96.327	14.9276
136.000000	96.296	14.7372
138.000000	96.314	14.4401
140.000000	96.315	14.3405
143.000000	96.332	14.1096
145.000000	96.318	13.5944
147.500000	96.314	13.5972
150.000000	96.274	13.4865
152.500000	96.287	13.3534
155.000000	96.243	12.9811
157.500000	96.295	12.6433
160.000000	96.294	12.5994
162.500000	96.250	12.4218
165.000000	96.257	12.4657
167.500000	96.237	12.0284
170.000000	96.234	12.0762
172.500000	96.181	11.7086
175.000000	96.233	11.9468
177.500000	96.244	11.4819
180.000000	96.222	11.2249
182.500000	96.226	11.1497
185.000000	96.197	10.8506
187.500000	96.203	10.8070
190.000000	96.162	11.0529
192.500000	96.142	10.8582
195.000000	96.111	10.6917
197.500000	96.056	10.7151
200.000000	96.082	10.5754
203.000000	96.054	10.3612
206.000000	96.010	10.6808
209.000000	96.004	10.6289
212.000000	95.937	10.2029
214.000000	95.987	10.5504
218.000000	95.951	10.7312
220.000000	95.968	10.6079
224.000000	95.961	10.7399
227.000000	95.983	10.8269
230.000000	95.982	10.8147
233.000000	95.984	10.5527
236.000000	95.989	10.6321
240.000000	95.997	10.3256
243.000000	95.954	10.4930
247.000000	95.978	10.3312
250.000000	95.995	10.0826
254.000000	95.957	10.3434
258.000000	95.928	10.2110
262.000000	95.917	10.3855
265.000000	95.911	10.4449
269.000000	95.922	10.0509
272.000000	95.879	10.1671
276.000000	95.833	10.5536
280.000000	95.855	10.2980
285.000000	95.833	10.4331
290.000000	95.809	10.0343
295.000000	95.816	10.3220
300.000000	95.797	10.2511
304.000000	95.744	10.5483
307.000000	95.746	10.6376
311.000000	95.732	10.3901
315.000000	95.710	10.5881
320.000000	95.700	10.6094
325.000000	95.690	10.6360
330.000000	95.632	10.6287
335.000000	95.625	10.9059
340.000000	95.597	10.8995
345.000000	95.576	10.9615
350.000000	95.599	11.0231
355.000000	95.568	11.6392
360.000000	95.514	11.5917
365.000000	95.516	11.6141
370.000000	95.508	11.7598
375.000000	95.508	11.6005
382.000000	95.449	12.0269
387.000000	95.492	12.1882
395.000000	95.425	12.6284
400.000000	95.444	12.7941
406.000000	95.434	13.0685
412.000000	95.410	12.9669
418.000000	95.430	13.1983
425.000000	95.391	13.3629
431.000000	95.385	13.4115
437.000000	95.352	13.5747
444.000000	95.349	13.6106
450.000000	95.335	13.9971
455.000000	95.314	14.0581
462.000000	95.275	14.2198
468.000000	95.269	14.4299
475.000000	95.261	14.8835
482.000000	95.187	14.8345
487.000000	95.189	15.0726
494.000000	95.176	15.1616
500.000000	95.188	15.3143
508.000000	95.143	15.8085
515.000000	95.090	15.8285
522.000000	95.070	16.1912
530.000000	95.046	16.1700
538.000000	95.020	16.6987
545.000000	94.950	17.0364
552.000000	94.916	17.2294
560.000000	94.877	17.7040
570.000000	94.874	17.9402
580.000000	94.820	18.5568
590.000000	94.769	18.9200
600.000000	94.700	19.5858
608.000000	94.656	20.0809
615.000000	94.590	20.2520
622.000000	94.564	20.7867
630.000000	94.507	21.3798
640.000000	94.500	21.7073
650.000000	94.428	22.7015
660.000000	94.415	23.2588
670.000000	94.309	23.9915
680.000000	94.213	25.0865
690.000000	94.182	25.9860
700.000000	94.129	26.8011
710.000000	94.086	27.9471
720.000000	94.066	28.9534
730.000000	94.024	30.1585
740.000000	94.027	31.2444
750.000000	94.009	32.5277
762.000000	94.008	33.8536
775.000000	94.016	35.6709
788.000000	94.078	37.3276
800.000000	94.111	38.8921
812.000000	94.188	40.6200
825.000000	94.267	42.2755
838.000000	94.379	43.9010
850.000000	94.472	45.1742
862.000000	94.637	46.8195
875.000000	94.780	48.2102
885.000000	94.956	49.2193
900.000000	95.131	50.9310
912.000000	95.279	51.8981
925.000000	95.508	52.9569
938.000000	95.688	54.0276
950.000000	95.862	54.8808
962.000000	96.048	55.6293
975.000000	96.233	56.4717
988.000000	96.434	57.2865
1000.000000	96.620	57.9474
1015.000000	96.877	59.0525
1030.000000	97.138	60.1226
1044.000000	97.419	61.0851
1060.000000	97.782	61.8099
1075.000000	98.133	62.1115
1090.000000	98.485	62.1685
1106.000000	98.884	62.1230
1120.000000	99.165	61.6410
1138.000000	99.527	60.8839
1150.000000	99.767	60.3528
1172.000000	100.109	59.0625
1180.000000	100.225	58.6589
1206.000000	100.528	57.0728
1220.000000	100.660	56.4041
1241.000000	100.828	55.3497
1250.000000	100.889	54.8671
1265.000000	100.986	54.2433
1280.000000	101.052	53.6054
1315.000000	101.256	52.3091
1320.000000	101.267	52.3014
1340.000000	101.329	51.7117
1360.000000	101.419	51.1795
1380.000000	101.477	50.7289
1400.000000	101.540	50.5227
1430.000000	101.626	50.1023
1450.000000	101.709	49.9539
1475.000000	101.802	49.6715
1500.000000	101.868	49.5490
1525.000000	101.960	49.5497
1550.000000	102.055	49.4478
1575.000000	102.130	49.3317
1600.000000	102.219	49.3796
1625.000000	102.321	49.5311
1650.000000	102.436	49.5845
1675.000000	102.535	49.6245
1700.000000	102.620	49.7614
1725.000000	102.756	49.8197
1750.000000	102.881	49.9641
1775.000000	102.998	50.0741
1800.000000	103.126	50.1285
1825.000000	103.262	50.1984
1850.000000	103.391	50.2981
1875.000000	103.549	50.2678
1900.000000	103.706	50.4458
1925.000000	103.846	50.3388
1950.000000	104.001	50.3570
1975.000000	104.167	50.2924
2000.000000	104.325	50.2450
2030.000000	104.531	50.0819
2060.000000	104.745	49.8652
2090.000000	104.961	49.6133
2120.000000	105.178	49.2853
2140.000000	105.333	48.9415
2180.000000	105.633	48.2954
2200.000000	105.775	47.9062
2240.000000	106.091	46.9800
2270.000000	106.313	46.1400
2300.000000	106.538	45.1411
2330.000000	106.747	44.1350
2360.000000	106.960	42.9426
2400.000000	107.234	41.1923
2430.000000	107.422	39.7757
2470.000000	107.651	37.6313
2500.000000	107.806	35.9062
2540.000000	107.977	33.5078
2580.000000	108.108	30.9281
2620.000000	108.185	28.3222
2650.000000	108.223	26.3151
2690.000000	108.233	23.5903
2720.000000	108.199	21.6243
2760.000000	108.126	19.0389
2800.000000	108.008	16.6375
2850.000000	107.817	13.8861
2900.000000	107.574	11.3598
2950.000000	107.296	9.2507
3000.000000	106.994	7.4428
3040.000000	106.743	6.2482
3070.000000	106.565	5.4794
3110.000000	106.294	4.6379
3150.000000	106.044	3.9977
3200.000000	105.741	3.3938
3250.000000	105.437	3.0489
3300.000000	105.141	2.9125
3350.000000	104.879	3.0052
3400.000000	104.613	3.2281
3450.000000	104.375	3.6558
3500.000000	104.149	4.2395
3550.000000	103.964	4.8348
3600.000000	103.776	5.6226
3650.000000	103.616	6.5204
3700.000000	103.478	7.3773
3750.000000	103.348	8.4666
3820.000000	103.217	9.8886
3870.000000	103.177	10.9479
3950.000000	103.111	12.7542
4000.000000	103.102	13.9269
4060.000000	103.150	15.3383
4120.000000	103.206	16.5700
4180.000000	103.289	17.8450
4250.000000	103.426	19.1276
4310.000000	103.584	20.2505
4370.000000	103.771	21.3007
4440.000000	104.018	22.2584
4500.000000	104.303	23.0448
4550.000000	104.537	23.3235
4620.000000	104.961	23.5851
4680.000000	105.327	23.4301
4750.000000	105.841	22.7975
4820.000000	106.374	21.2415
4870.000000	106.761	19.5940
4940.000000	107.266	16.2505
5000.000000	107.623	12.4928
5080.000000	107.846	6.4883
5150.000000	107.757	1.5874
5220.000000	107.630	-1.7981
5300.000000	107.755	-5.4490
5380.000000	107.891	-11.7887
5450.000000	107.691	-18.7272
5520.000000	107.161	-25.1208
5600.000000	106.273	-31.1378
5700.000000	105.023	-36.1428
5800.000000	103.719	-38.8196
5900.000000	102.487	-39.7866
6000.000000	101.354	-39.4996
6080.000000	100.500	-38.8730
6150.000000	99.827	-37.5175
6220.000000	99.178	-36.1818
6300.000000	98.481	-34.1619
6400.000000	97.715	-31.6570
6500.000000	97.003	-28.7433
6600.000000	96.397	-25.8453
6700.000000	95.820	-22.2955
6800.000000	95.340	-19.3156
6900.000000	94.808	-15.5823
7000.000000	94.450	-12.3842
7100.000000	94.111	-8.5525
7200.000000	93.766	-5.0688
7300.000000	93.565	-2.0470
7400.000000	93.322	2.0599
7500.000000	93.082	6.6215
7620.000000	93.194	10.2568
7750.000000	92.951	14.0391
7880.000000	92.848	18.8524
8000.000000	92.955	24.5336
8120.000000	93.062	27.7199
8250.000000	93.508	32.5532
8380.000000	93.810	36.5158
8500.000000	94.264	40.1598
8620.000000	94.799	43.3568
8750.000000	95.579	46.4900
8850.000000	96.315	48.4751
9000.000000	97.718	49.8565
9120.000000	99.061	48.8386
9250.000000	100.814	44.5363
9380.000000	102.729	34.4054
9500.000000	104.020	18.3187
9620.000000	103.963	-2.4143
9750.000000	102.201	-20.7395
9880.000000	99.851	-30.3461
10000.000000	97.826	-33.7399
10150.000000	95.658	-34.7795
10300.000000	93.856	-33.1442
10440.000000	92.371	-30.6420
10600.000000	91.051	-26.8755
10750.000000	89.955	-23.3763
10900.000000	88.844	-18.7299
11060.000000	88.041	-14.5602
11200.000000	87.211	-9.9878
11380.000000	86.504	-4.2473
11500.000000	86.197	0.0233
11720.000000	85.523	8.6750
11800.000000	85.427	9.9229
12060.000000	85.033	18.3549
12200.000000	85.071	22.3036
12410.000000	85.263	27.9120
12500.000000	85.370	31.0093
12650.000000	85.631	34.7177
12800.000000	86.216	35.9459
13150.000000	88.008	40.6087
13200.000000	88.312	40.0087
13400.000000	89.994	36.1122
13600.000000	91.665	22.5989
13800.000000	91.910	0.4332
14000.000000	90.039	-20.5535
14300.000000	85.744	-33.2056
14500.000000	83.291	-34.4146
14750.000000	80.508	-31.3637
15000.000000	78.386	-25.8409
15250.000000	76.537	-19.4656
15500.000000	75.245	-15.5305
15750.000000	73.575	-7.2915
16000.000000	72.148	-2.6862
16250.000000	71.940	7.9747
16500.000000	71.594	17.5586
16750.000000	71.732	27.7142
17000.000000	71.080	30.8805
17250.000000	70.789	41.4370
17500.000000	71.667	52.0920
17750.000000	73.277	50.5648
18000.000000	74.566	47.1546
18250.000000	75.855	38.8287
18500.000000	75.912	22.5475
18750.000000	70.137	16.0305
19000.000000	75.954	53.9739
19250.000000	79.924	28.1093
19500.000000	79.492	1.1537
19750.000000	77.897	-16.1389
