* Measurement data measured by REW V5.31.1
* Source: EXCL: Micr√≥fono (Realtek(R) Audio), MICROPHONE (Volumen general), L, volume: 0,900. Timing signal peak level -9,8 dBFS, measurement signal peak level -9,5 dBFS
* Format: 512k Log Swept Sine, 1 sweep at -12,0 dBFS using an acoustic timing reference
* Dated: 12/09/2024 06:44:07 PM
* REW Settings:
*  C-weighting compensation: Off
*  Target level: 75.0 dB
* Note: Delay -0,0336 ms (-12 mm, -0,45 in) using estimated IR delay relative to Acoustic reference played from HEADPHONE R with no timing offset Clock adjustment: 18,8 ppm
* Measurement: 712 d6 mic 1 cD 7
* Smoothing: None
* Frequency Step: 1/48 octave
* Start Frequency: 20.000 Hz
*
* Freq(Hz)	SPL(dB)	Phase(degrees)
20.000000	95.286	79.4577
20.299999	95.368	78.1783
20.600000	95.413	76.9116
20.900000	95.426	75.8160
21.200001	95.431	74.9946
21.400000	95.447	74.5775
21.799999	95.522	73.8849
22.000000	95.582	73.5102
22.400000	95.727	72.5214
22.700001	95.832	71.5545
23.000000	95.912	70.4829
23.299999	95.966	69.4382
23.600000	96.001	68.5092
24.000000	96.040	67.5070
24.299999	96.080	66.8875
24.700001	96.153	66.1167
25.000000	96.216	65.5125
25.400000	96.297	64.6574
25.799999	96.366	63.8077
26.200001	96.426	63.0282
26.500000	96.471	62.4922
26.900000	96.535	61.8047
27.200001	96.584	61.2759
27.600000	96.644	60.5349
28.000000	96.691	59.7831
28.500000	96.733	58.9214
29.000000	96.773	58.1930
29.500000	96.827	57.5026
30.000000	96.888	56.7013
30.400000	96.921	55.9857
30.700001	96.933	55.4733
31.100000	96.939	54.9361
31.500000	96.959	54.5977
32.000000	97.039	54.2581
32.500000	97.171	53.6057
33.000000	97.286	52.4687
33.500000	97.328	51.1678
34.000000	97.310	50.2076
34.500000	97.306	49.7292
35.000000	97.359	49.3995
35.500000	97.444	48.8364
36.000000	97.506	48.0580
36.500000	97.531	47.3362
37.000000	97.546	46.8202
37.500000	97.574	46.4142
38.200001	97.623	45.8359
38.700001	97.658	45.4470
39.500000	97.735	44.7962
40.000000	97.786	44.2190
40.599998	97.817	43.4222
41.200001	97.822	42.7503
41.799999	97.833	42.2153
42.500000	97.856	41.5872
43.099998	97.871	41.0917
43.700001	97.897	40.7156
44.400002	97.960	40.2335
45.000000	98.016	39.6218
45.500000	98.041	39.0488
46.200001	98.048	38.3593
46.799999	98.050	37.9282
47.500000	98.062	37.5016
48.200001	98.081	37.0786
48.700001	98.100	36.7809
49.400002	98.138	36.3133
50.000000	98.173	35.7680
50.799999	98.187	34.9707
51.500000	98.191	34.4927
52.200001	98.228	34.0704
53.000000	98.268	33.4045
53.799999	98.280	32.9387
54.500000	98.318	32.6794
55.200001	98.353	32.2650
56.000000	98.353	31.9366
57.000000	98.383	31.6042
58.000000	98.305	31.0901
59.000000	98.277	31.8625
60.000000	98.483	31.4276
60.799999	98.507	30.0717
61.500000	98.458	29.3117
62.200001	98.431	28.7789
63.000000	98.408	28.3935
64.000000	98.518	28.1533
65.000000	98.615	26.5250
66.000000	98.460	25.8005
67.000000	98.486	26.3901
68.000000	98.562	25.9969
69.000000	98.567	25.7432
70.000000	98.586	25.3802
71.000000	98.570	25.0463
72.000000	98.582	24.7286
73.000000	98.584	24.3025
74.000000	98.599	23.9567
75.000000	98.613	23.5217
76.199997	98.627	23.1497
77.500000	98.644	22.6443
78.800003	98.644	22.3585
80.000000	98.667	21.9684
81.199997	98.676	21.6021
82.500000	98.680	21.1183
83.800003	98.689	20.8781
85.000000	98.702	20.4709
86.199997	98.706	20.2457
87.500000	98.714	19.8580
88.500000	98.714	19.6400
90.000000	98.710	19.2074
91.199997	98.716	19.0162
92.500000	98.735	18.5935
93.800003	98.733	18.2482
95.000000	98.741	18.0278
96.199997	98.763	17.7090
97.500000	98.743	17.3928
98.800003	98.761	17.2701
100.000000	98.754	16.9456
101.500000	98.763	16.7406
103.000000	98.750	16.3903
104.400002	98.768	16.1838
106.000000	98.753	15.8089
107.500000	98.777	15.6889
109.000000	98.774	15.2573
110.599998	98.769	15.0177
112.000000	98.771	14.6462
113.800003	98.769	14.4824
115.000000	98.785	14.0161
117.199997	98.784	13.7140
118.000000	98.730	13.7347
120.599998	98.782	13.3830
122.000000	98.778	13.5015
124.099998	98.773	12.9413
125.000000	98.767	12.8287
126.500000	98.794	12.5569
128.000000	98.769	12.2770
131.500000	98.755	12.0957
132.000000	98.768	11.9078
134.000000	98.684	11.6447
136.000000	98.724	11.4282
138.000000	98.737	11.2991
140.000000	98.700	10.8262
143.000000	98.688	10.6538
145.000000	98.675	10.4372
147.500000	98.684	10.1447
150.000000	98.677	10.2299
152.500000	98.669	10.0928
155.000000	98.659	9.8690
157.500000	98.681	9.6338
160.000000	98.690	9.5293
162.500000	98.694	9.2145
165.000000	98.695	8.9899
167.500000	98.711	8.8367
170.000000	98.707	8.7644
172.500000	98.655	8.4883
175.000000	98.712	8.2993
177.500000	98.693	8.0269
180.000000	98.674	7.7732
182.500000	98.650	7.4129
185.000000	98.658	7.6349
187.500000	98.649	7.3580
190.000000	98.644	7.3059
192.500000	98.637	7.0978
195.000000	98.632	7.1076
197.500000	98.638	6.8578
200.000000	98.610	6.5515
203.000000	98.604	6.4797
206.000000	98.610	6.2583
209.000000	98.590	6.1953
212.000000	98.571	5.9739
214.000000	98.573	6.0071
218.000000	98.536	5.7365
220.000000	98.547	5.5559
224.000000	98.513	5.4668
227.000000	98.519	5.3926
230.000000	98.505	5.1172
233.000000	98.514	4.9649
236.000000	98.467	5.1033
240.000000	98.473	4.7615
243.000000	98.452	4.6332
247.000000	98.451	4.5783
250.000000	98.414	4.4952
254.000000	98.387	4.3981
258.000000	98.393	4.0611
262.000000	98.379	4.0476
265.000000	98.350	4.0897
269.000000	98.340	3.9681
272.000000	98.314	3.7621
276.000000	98.273	3.8298
280.000000	98.300	3.7415
285.000000	98.261	3.7184
290.000000	98.238	3.7137
295.000000	98.178	3.6517
300.000000	98.146	3.2969
304.000000	98.156	3.7313
307.000000	98.169	3.7389
311.000000	98.146	3.5291
315.000000	98.159	3.7228
320.000000	98.141	3.6311
325.000000	98.116	3.6063
330.000000	98.103	3.5231
335.000000	98.074	3.3212
340.000000	98.070	3.2869
345.000000	98.064	3.1273
350.000000	98.079	3.1674
355.000000	98.030	2.9100
360.000000	98.001	3.0381
365.000000	97.973	2.9367
370.000000	97.946	3.0156
375.000000	97.920	2.8790
382.000000	97.878	3.0652
387.000000	97.874	3.0154
395.000000	97.820	2.8671
400.000000	97.784	2.9119
406.000000	97.773	2.7366
412.000000	97.722	2.9744
418.000000	97.689	2.8802
425.000000	97.651	3.0530
431.000000	97.612	3.1584
437.000000	97.568	3.3127
444.000000	97.549	3.5145
450.000000	97.490	3.6538
455.000000	97.497	3.8004
462.000000	97.473	4.2352
468.000000	97.474	4.2867
475.000000	97.500	4.4412
482.000000	97.468	4.3517
487.000000	97.450	4.4847
494.000000	97.474	4.5729
500.000000	97.466	4.5267
508.000000	97.420	4.5974
515.000000	97.402	4.7656
522.000000	97.380	4.7666
530.000000	97.331	4.7395
538.000000	97.297	4.8024
545.000000	97.285	5.0889
552.000000	97.238	5.0942
560.000000	97.234	5.3367
570.000000	97.192	5.4559
580.000000	97.144	5.6067
590.000000	97.092	5.7039
600.000000	97.068	5.9368
608.000000	97.034	6.2460
615.000000	97.003	6.3694
622.000000	96.953	6.3746
630.000000	96.945	6.6831
640.000000	96.900	6.9144
650.000000	96.792	7.0967
660.000000	96.811	7.5742
670.000000	96.803	7.6587
680.000000	96.765	8.0316
690.000000	96.752	8.2549
700.000000	96.668	8.5929
710.000000	96.640	8.9382
720.000000	96.618	9.3582
730.000000	96.578	9.7045
740.000000	96.524	10.0750
750.000000	96.481	10.2466
762.000000	96.446	10.8702
775.000000	96.416	11.3141
788.000000	96.340	11.9290
800.000000	96.291	12.1835
812.000000	96.250	13.0139
825.000000	96.216	13.5216
838.000000	96.171	14.1741
850.000000	96.097	14.8567
862.000000	96.068	15.5167
875.000000	96.043	16.2887
885.000000	95.990	16.9304
900.000000	95.948	17.9434
912.000000	95.933	18.7242
925.000000	95.882	19.4551
938.000000	95.859	20.5355
950.000000	95.847	21.4229
962.000000	95.801	22.4398
975.000000	95.803	23.5775
988.000000	95.786	24.8205
1000.000000	95.773	26.0871
1015.000000	95.795	27.8527
1030.000000	95.891	29.7126
1044.000000	96.021	31.1906
1060.000000	96.192	32.8947
1075.000000	96.380	34.2859
1090.000000	96.652	35.2629
1106.000000	96.857	35.8860
1120.000000	97.075	36.3903
1138.000000	97.336	36.8416
1150.000000	97.475	36.9154
1172.000000	97.720	36.7693
1180.000000	97.800	36.7330
1206.000000	98.005	36.5720
1220.000000	98.100	36.4594
1241.000000	98.212	36.3737
1250.000000	98.262	36.2699
1265.000000	98.342	36.1970
1280.000000	98.406	36.2008
1315.000000	98.530	36.2452
1320.000000	98.535	36.3783
1340.000000	98.615	36.4627
1360.000000	98.661	36.6927
1380.000000	98.725	36.9350
1400.000000	98.798	37.1227
1430.000000	98.886	37.5576
1450.000000	98.946	37.9130
1475.000000	99.029	38.3105
1500.000000	99.113	38.8504
1525.000000	99.211	39.3188
1550.000000	99.310	39.7896
1575.000000	99.421	40.2386
1600.000000	99.524	40.7293
1625.000000	99.626	41.2229
1650.000000	99.763	41.7232
1675.000000	99.883	42.2113
1700.000000	100.007	42.6639
1725.000000	100.133	43.0529
1750.000000	100.287	43.4992
1775.000000	100.419	43.8194
1800.000000	100.565	44.2912
1825.000000	100.724	44.5129
1850.000000	100.887	44.8782
1875.000000	101.063	45.1449
1900.000000	101.225	45.3287
1925.000000	101.411	45.6559
1950.000000	101.589	45.7180
1975.000000	101.769	45.7907
2000.000000	101.963	45.8188
2030.000000	102.198	45.8197
2060.000000	102.437	45.7822
2090.000000	102.693	45.6567
2120.000000	102.963	45.3292
2140.000000	103.160	45.0205
2180.000000	103.535	44.4423
2200.000000	103.724	44.0725
2240.000000	104.075	43.3158
2270.000000	104.333	42.5414
2300.000000	104.592	41.7038
2330.000000	104.835	40.7220
2360.000000	105.067	39.6855
2400.000000	105.367	38.0188
2430.000000	105.576	36.5764
2470.000000	105.822	34.5787
2500.000000	105.995	32.8955
2540.000000	106.179	30.5215
2580.000000	106.324	28.0271
2620.000000	106.425	25.4465
2650.000000	106.472	23.4891
2690.000000	106.477	20.8596
2720.000000	106.443	18.9408
2760.000000	106.379	16.4164
2800.000000	106.258	14.0884
2850.000000	106.073	11.4537
2900.000000	105.829	9.0099
2950.000000	105.562	6.9761
3000.000000	105.267	5.3080
3040.000000	105.001	4.2693
3070.000000	104.801	3.5482
3110.000000	104.557	2.8021
3150.000000	104.294	2.2470
3200.000000	104.007	1.7831
3250.000000	103.722	1.6862
3300.000000	103.462	1.6495
3350.000000	103.190	1.7843
3400.000000	102.932	2.1895
3450.000000	102.688	2.6169
3500.000000	102.469	3.2333
3550.000000	102.292	4.0157
3600.000000	102.117	4.8332
3650.000000	101.955	5.7833
3700.000000	101.832	6.7470
3750.000000	101.720	7.8022
3820.000000	101.608	9.3257
3870.000000	101.537	10.5000
3950.000000	101.493	12.4818
4000.000000	101.482	13.7080
4060.000000	101.522	15.1602
4120.000000	101.620	16.5668
4180.000000	101.740	17.8207
4250.000000	101.920	18.9896
4310.000000	102.085	20.1303
4370.000000	102.310	20.9730
4440.000000	102.595	21.8137
4500.000000	102.869	22.6167
4550.000000	103.143	22.9182
4620.000000	103.586	23.1409
4680.000000	103.955	22.9530
4750.000000	104.489	22.0962
4820.000000	105.015	20.5457
4870.000000	105.416	18.8110
4940.000000	105.956	15.5366
5000.000000	106.310	11.6301
5080.000000	106.554	5.4750
5150.000000	106.473	0.6245
5220.000000	106.381	-2.6883
5300.000000	106.551	-7.0590
5380.000000	106.601	-13.9081
5450.000000	106.309	-20.6490
5520.000000	105.712	-26.8600
5600.000000	104.837	-32.4965
5700.000000	103.553	-37.2128
5800.000000	102.233	-39.7153
5900.000000	100.958	-40.3857
6000.000000	99.817	-39.5908
6080.000000	98.957	-38.5068
6150.000000	98.309	-37.3373
6220.000000	97.694	-35.9938
6300.000000	97.000	-34.0363
6400.000000	96.271	-31.5100
6500.000000	95.605	-28.8336
6600.000000	94.960	-25.9207
6700.000000	94.432	-22.6780
6800.000000	93.938	-19.4550
6900.000000	93.486	-16.3047
7000.000000	93.127	-12.4870
7100.000000	92.769	-9.4146
7200.000000	92.469	-5.7910
7300.000000	92.209	-2.1016
7400.000000	91.939	1.5623
7500.000000	91.700	5.7822
7620.000000	91.878	9.4760
7750.000000	91.719	13.8713
7880.000000	91.687	18.4076
8000.000000	91.823	23.3479
8120.000000	91.977	27.4553
8250.000000	92.383	30.8299
8380.000000	92.752	34.5688
8500.000000	93.162	38.1335
8620.000000	93.760	40.7759
8750.000000	94.534	43.4062
8850.000000	95.266	44.7519
9000.000000	96.586	44.9940
9120.000000	97.871	43.2339
9250.000000	99.397	37.6790
9380.000000	100.901	26.5536
9500.000000	101.633	10.4076
9620.000000	101.115	-7.5360
9750.000000	99.377	-21.9929
9880.000000	97.316	-29.8037
10000.000000	95.516	-33.1785
10150.000000	93.541	-34.0615
10300.000000	91.867	-32.5955
10440.000000	90.473	-30.5862
10600.000000	89.141	-27.1938
10750.000000	87.959	-23.8412
10900.000000	87.038	-19.8136
11060.000000	85.966	-15.1703
11200.000000	85.216	-10.9579
11380.000000	84.461	-5.3389
11500.000000	84.011	-0.9888
11720.000000	83.182	6.0480
11800.000000	83.032	8.3033
12060.000000	82.690	16.4562
12200.000000	82.501	20.5511
12410.000000	82.551	27.3574
12500.000000	82.773	29.9913
12650.000000	82.948	35.1173
12800.000000	83.085	37.5252
13150.000000	84.417	43.7863
13200.000000	84.575	44.9764
13400.000000	85.848	45.3359
13600.000000	87.401	39.6455
13800.000000	88.829	27.3948
14000.000000	89.098	7.1604
14300.000000	86.058	-17.5651
14500.000000	83.473	-24.7178
14750.000000	80.806	-24.2836
15000.000000	78.216	-23.2375
15250.000000	76.095	-17.7817
15500.000000	74.133	-14.8212
15750.000000	73.088	-6.8203
16000.000000	71.442	-1.1978
16250.000000	70.631	7.0361
16500.000000	69.733	10.2334
16750.000000	70.195	20.9237
17000.000000	69.408	34.3065
17250.000000	70.005	37.7384
17500.000000	70.208	44.7857
17750.000000	71.268	47.0396
18000.000000	71.534	45.1258
18250.000000	72.863	36.6820
18500.000000	73.403	22.8901
18750.000000	66.729	26.7145
19000.000000	72.919	56.4795
19250.000000	76.226	34.0627
19500.000000	76.793	9.3508
19750.000000	74.984	-8.9777
