* Measurement data measured by REW V5.31.1
* Source: EXCL: Micr√≥fono (Realtek(R) Audio), MICROPHONE (Volumen general), L, volume: 0,900. Timing signal peak level -11,9 dBFS, measurement signal peak level -10,6 dBFS
* Format: 512k Log Swept Sine, 1 sweep at -12,0 dBFS using an acoustic timing reference
* Dated: 5/10/2024 01:55:13 AM
* REW Settings:
*  C-weighting compensation: Off
*  Target level: 75.0 dB
* Note: Delay -0,0324 ms (-11 mm, -0,44 in) using estimated IR delay relative to Acoustic reference played from HEADPHONE R with no timing offset Clock adjustment: 18,1 ppm
* Measurement: V15 mic 1
* Smoothing: None
* Frequency Step: 1/48 octave
* Start Frequency: 20.000 Hz
*
* Freq(Hz)	SPL(dB)	Phase(degrees)
20.000000	88.915	81.7828
20.299999	89.012	81.1342
20.600000	89.114	80.4004
20.900000	89.209	79.5835
21.200001	89.291	78.7295
21.400000	89.338	78.1766
21.799999	89.422	77.1552
22.000000	89.463	76.6969
22.400000	89.554	75.8623
22.700001	89.634	75.2520
23.000000	89.721	74.6002
23.299999	89.808	73.8892
23.600000	89.889	73.1353
24.000000	89.983	72.1239
24.299999	90.044	71.4146
24.700001	90.123	70.5663
25.000000	90.187	69.9803
25.400000	90.283	69.1958
25.799999	90.380	68.3378
26.200001	90.464	67.4127
26.500000	90.513	66.7274
26.900000	90.562	65.9010
27.200001	90.594	65.3732
27.600000	90.643	64.7685
28.000000	90.701	64.1978
28.500000	90.777	63.4462
29.000000	90.841	62.6949
29.500000	90.901	62.0389
30.000000	90.973	61.4471
30.400000	91.041	60.9239
30.700001	91.092	60.4720
31.100000	91.150	59.8184
31.500000	91.195	59.1741
32.000000	91.241	58.4622
32.500000	91.293	57.8319
33.000000	91.352	57.2019
33.500000	91.411	56.5600
34.000000	91.470	55.9379
34.500000	91.534	55.3052
35.000000	91.598	54.5940
35.500000	91.644	53.8263
36.000000	91.667	53.1314
36.500000	91.683	52.5994
37.000000	91.711	52.1837
37.500000	91.753	51.7776
38.200001	91.817	51.1563
38.700001	91.862	50.7079
39.500000	91.939	49.9920
40.000000	91.990	49.5102
40.599998	92.049	48.8507
41.200001	92.087	48.1061
41.799999	92.093	47.4554
42.500000	92.100	47.0517
43.099998	92.154	46.7650
43.700001	92.218	46.1792
44.400002	92.234	45.4177
45.000000	92.239	45.1402
45.500000	92.291	44.9714
46.200001	92.394	44.2347
46.799999	92.413	43.3218
47.500000	92.378	42.7687
48.200001	92.406	42.6821
48.700001	92.472	42.4669
49.400002	92.552	41.8034
50.000000	92.580	41.1947
50.799999	92.592	40.6299
51.500000	92.614	40.2754
52.200001	92.637	39.8676
53.000000	92.642	39.4472
53.799999	92.662	39.1806
54.500000	92.698	38.7558
55.200001	92.705	38.2653
56.000000	92.733	37.8804
57.000000	92.781	36.8696
58.000000	92.759	36.5474
59.000000	92.981	35.8383
60.000000	92.902	33.4935
60.799999	92.695	34.0315
61.500000	92.808	35.0623
62.200001	92.978	34.5572
63.000000	92.966	33.7108
64.000000	92.965	33.7762
65.000000	93.000	33.2281
66.000000	92.966	33.0284
67.000000	93.014	32.8103
68.000000	93.031	32.2010
69.000000	93.025	31.8142
70.000000	93.049	31.5623
71.000000	93.084	31.1659
72.000000	93.096	30.8266
73.000000	93.117	30.5444
74.000000	93.116	30.2540
75.000000	93.132	30.1447
76.199997	93.167	29.7216
77.500000	93.182	29.2682
78.800003	93.178	28.7289
80.000000	93.187	28.6024
81.199997	93.227	28.1455
82.500000	93.210	27.8634
83.800003	93.246	27.8128
85.000000	93.293	27.3525
86.199997	93.248	26.8489
87.500000	93.235	26.8965
88.500000	93.261	26.6611
90.000000	93.279	26.1956
91.199997	93.285	25.8635
92.500000	93.304	25.5683
93.800003	93.303	25.3977
95.000000	93.339	25.4039
96.199997	93.367	25.0333
97.500000	93.335	24.8131
98.800003	93.345	24.6688
100.000000	93.348	24.3225
101.500000	93.337	23.9121
103.000000	93.327	23.7998
104.400002	93.365	23.5969
106.000000	93.362	23.4268
107.500000	93.367	23.1906
109.000000	93.375	22.9757
110.599998	93.378	22.7512
112.000000	93.371	22.4863
113.800003	93.399	22.3604
115.000000	93.374	22.2953
117.199997	93.394	22.1007
118.000000	93.393	22.0675
120.599998	93.375	21.6772
122.000000	93.381	21.4708
124.099998	93.414	21.1571
125.000000	93.363	21.0664
126.500000	93.403	21.3087
128.000000	93.404	21.0153
131.500000	93.437	20.6860
132.000000	93.419	20.5629
134.000000	93.380	20.5919
136.000000	93.407	20.5382
138.000000	93.397	20.2822
140.000000	93.419	20.0428
143.000000	93.405	20.1854
145.000000	93.399	19.8958
147.500000	93.413	19.5684
150.000000	93.358	19.5681
152.500000	93.383	19.5129
155.000000	93.418	19.4944
157.500000	93.386	19.3978
160.000000	93.372	19.2111
162.500000	93.379	19.2517
165.000000	93.407	19.0424
167.500000	93.368	19.0283
170.000000	93.410	18.6808
172.500000	93.346	18.9480
175.000000	93.390	18.8492
177.500000	93.363	18.6144
180.000000	93.280	18.8150
182.500000	93.291	18.5680
185.000000	93.348	18.9056
187.500000	93.263	18.7782
190.000000	93.268	18.7198
192.500000	93.209	19.2098
195.000000	93.183	19.0250
197.500000	93.204	19.2032
200.000000	93.278	19.5437
203.000000	93.270	19.6303
206.000000	93.284	19.4581
209.000000	93.280	19.6301
212.000000	93.306	19.6115
214.000000	93.302	19.9678
218.000000	93.358	19.9468
220.000000	93.311	20.0689
224.000000	93.329	19.8710
227.000000	93.320	19.9658
230.000000	93.348	19.9733
233.000000	93.317	19.7701
236.000000	93.297	19.9451
240.000000	93.315	20.1399
243.000000	93.286	20.4456
247.000000	93.300	20.3663
250.000000	93.288	20.3171
254.000000	93.328	20.7595
258.000000	93.300	20.8673
262.000000	93.301	20.6505
265.000000	93.278	20.6471
269.000000	93.326	20.9509
272.000000	93.335	21.2770
276.000000	93.319	21.4885
280.000000	93.315	21.7382
285.000000	93.335	22.0619
290.000000	93.345	22.0636
295.000000	93.327	22.1659
300.000000	93.393	22.3118
304.000000	93.339	22.7559
307.000000	93.371	22.9798
311.000000	93.379	22.9418
315.000000	93.396	23.1302
320.000000	93.404	23.4493
325.000000	93.406	23.7369
330.000000	93.442	23.7074
335.000000	93.442	23.9896
340.000000	93.450	24.2899
345.000000	93.456	24.7595
350.000000	93.475	24.8094
355.000000	93.519	25.0870
360.000000	93.481	25.2980
365.000000	93.493	25.5935
370.000000	93.469	25.7046
375.000000	93.541	25.9468
382.000000	93.547	26.0568
387.000000	93.548	26.4391
395.000000	93.551	26.8579
400.000000	93.529	26.9385
406.000000	93.624	27.4935
412.000000	93.604	27.8159
418.000000	93.645	28.1622
425.000000	93.674	28.3109
431.000000	93.727	28.5994
437.000000	93.750	28.7819
444.000000	93.724	29.3570
450.000000	93.756	29.4505
455.000000	93.783	29.7443
462.000000	93.788	30.0040
468.000000	93.851	30.2818
475.000000	93.851	30.6982
482.000000	93.868	31.1101
487.000000	93.855	31.1860
494.000000	93.907	31.5720
500.000000	93.912	32.0656
508.000000	93.907	32.0212
515.000000	93.960	32.7300
522.000000	93.993	33.0215
530.000000	94.006	33.5178
538.000000	94.024	33.8786
545.000000	94.062	34.5024
552.000000	94.097	34.9200
560.000000	94.122	35.1239
570.000000	94.158	35.5347
580.000000	94.195	36.0607
590.000000	94.234	36.6584
600.000000	94.272	37.0974
608.000000	94.318	37.6641
615.000000	94.359	37.9925
622.000000	94.403	38.2109
630.000000	94.436	38.8378
640.000000	94.476	39.2923
650.000000	94.517	39.6412
660.000000	94.568	40.2818
670.000000	94.617	41.0005
680.000000	94.663	41.4132
690.000000	94.712	42.0843
700.000000	94.779	42.4699
710.000000	94.812	43.3840
720.000000	94.869	43.7651
730.000000	94.993	44.1811
740.000000	94.996	44.5627
750.000000	95.055	45.3286
762.000000	95.124	45.7989
775.000000	95.239	46.7131
788.000000	95.317	47.3144
800.000000	95.375	47.9966
812.000000	95.484	48.4834
825.000000	95.566	49.0470
838.000000	95.639	49.9513
850.000000	95.746	50.4761
862.000000	95.829	51.0877
875.000000	95.906	51.9062
885.000000	95.979	52.3187
900.000000	96.138	52.8548
912.000000	96.195	53.7274
925.000000	96.290	54.5341
938.000000	96.407	55.2990
950.000000	96.501	56.0488
962.000000	96.629	56.7180
975.000000	96.786	57.7066
988.000000	96.908	58.4439
1000.000000	97.073	59.1046
1015.000000	97.302	60.1448
1030.000000	97.503	60.7397
1044.000000	97.751	61.3089
1060.000000	98.017	62.1162
1075.000000	98.296	62.4754
1090.000000	98.574	62.6719
1106.000000	98.893	62.6392
1120.000000	99.120	62.4016
1138.000000	99.435	61.8309
1150.000000	99.637	61.4287
1172.000000	99.906	60.2044
1180.000000	100.017	59.8141
1206.000000	100.270	58.4869
1220.000000	100.391	57.8293
1241.000000	100.532	56.8267
1250.000000	100.602	56.4174
1265.000000	100.685	55.9133
1280.000000	100.750	55.2805
1315.000000	100.910	54.2382
1320.000000	100.920	54.0350
1340.000000	100.991	53.5680
1360.000000	101.049	53.1572
1380.000000	101.122	52.8571
1400.000000	101.178	52.4405
1430.000000	101.269	52.1288
1450.000000	101.309	51.8492
1475.000000	101.397	51.5784
1500.000000	101.461	51.4854
1525.000000	101.557	51.3638
1550.000000	101.623	51.3604
1575.000000	101.710	51.2990
1600.000000	101.808	51.4062
1625.000000	101.896	51.3354
1650.000000	101.995	51.4975
1675.000000	102.096	51.6019
1700.000000	102.196	51.7012
1725.000000	102.310	51.7231
1750.000000	102.417	51.8047
1775.000000	102.540	51.8237
1800.000000	102.658	51.9908
1825.000000	102.801	52.0392
1850.000000	102.917	52.0278
1875.000000	103.059	52.0817
1900.000000	103.203	52.2098
1925.000000	103.365	52.1417
1950.000000	103.524	52.1342
1975.000000	103.675	52.1039
2000.000000	103.842	52.0816
2030.000000	104.035	51.8470
2060.000000	104.251	51.6868
2090.000000	104.460	51.3957
2120.000000	104.680	51.0578
2140.000000	104.821	50.7759
2180.000000	105.133	50.1281
2200.000000	105.276	49.6530
2240.000000	105.570	48.7562
2270.000000	105.786	47.9861
2300.000000	106.018	47.0423
2330.000000	106.236	45.9984
2360.000000	106.450	44.8393
2400.000000	106.713	43.1555
2430.000000	106.906	41.6539
2470.000000	107.139	39.6099
2500.000000	107.292	37.9107
2540.000000	107.458	35.5153
2580.000000	107.589	33.0160
2620.000000	107.681	30.4716
2650.000000	107.729	28.4918
2690.000000	107.736	25.9069
2720.000000	107.714	23.9264
2760.000000	107.641	21.4496
2800.000000	107.531	18.9894
2850.000000	107.330	16.2414
2900.000000	107.095	13.8635
2950.000000	106.820	11.7898
3000.000000	106.512	10.0256
3040.000000	106.259	8.9193
3070.000000	106.071	8.2272
3110.000000	105.831	7.4658
3150.000000	105.569	6.8348
3200.000000	105.264	6.3226
3250.000000	104.972	6.0200
3300.000000	104.694	5.9374
3350.000000	104.422	6.0743
3400.000000	104.186	6.4832
3450.000000	103.938	6.9833
3500.000000	103.717	7.4982
3550.000000	103.527	8.2963
3600.000000	103.373	9.1213
3650.000000	103.218	9.9692
3700.000000	103.104	10.9845
3750.000000	102.989	11.9096
3820.000000	102.882	13.3842
3870.000000	102.837	14.4714
3950.000000	102.789	16.2036
4000.000000	102.779	17.1625
4060.000000	102.782	18.4709
4120.000000	102.818	19.8051
4180.000000	102.912	21.1759
4250.000000	103.039	22.8118
4310.000000	103.222	24.0619
4370.000000	103.417	25.0884
4440.000000	103.708	26.1697
4500.000000	103.987	26.9921
4550.000000	104.259	27.3539
4620.000000	104.674	27.6486
4680.000000	105.072	27.6702
4750.000000	105.591	26.9648
4820.000000	106.156	25.6379
4870.000000	106.593	24.0094
4940.000000	107.160	20.9309
5000.000000	107.624	17.2796
5080.000000	108.061	10.9141
5150.000000	108.187	4.3960
5220.000000	108.016	-1.9333
5300.000000	107.575	-7.5349
5380.000000	107.198	-11.6243
5450.000000	106.983	-15.6802
5520.000000	106.629	-20.8606
5600.000000	105.944	-26.2715
5700.000000	104.776	-31.3683
5800.000000	103.545	-34.2234
5900.000000	102.376	-35.2186
6000.000000	101.252	-34.9510
6080.000000	100.407	-33.8943
6150.000000	99.774	-32.6816
6220.000000	99.155	-31.5066
6300.000000	98.511	-29.5460
6400.000000	97.776	-26.9998
6500.000000	97.143	-24.2998
6600.000000	96.553	-21.2240
6700.000000	96.000	-18.1551
6800.000000	95.504	-14.7341
6900.000000	95.120	-11.6179
7000.000000	94.732	-7.5990
7100.000000	94.421	-4.0643
7200.000000	94.126	-0.2621
7300.000000	93.946	3.1978
7400.000000	93.827	6.9186
7500.000000	93.650	10.5000
7620.000000	93.779	16.3206
7750.000000	93.845	18.8854
7880.000000	93.786	23.2753
8000.000000	93.899	28.0383
8120.000000	94.258	31.7904
8250.000000	94.769	36.7821
8380.000000	95.161	39.4391
8500.000000	95.712	42.6144
8620.000000	96.491	45.3330
8750.000000	97.464	47.6513
8850.000000	98.467	48.1581
9000.000000	100.243	46.5867
9120.000000	101.952	41.4557
9250.000000	103.843	28.7907
9380.000000	104.772	7.5133
9500.000000	103.840	-13.2729
9620.000000	101.776	-26.9932
9750.000000	99.350	-33.9024
9880.000000	97.279	-36.0181
10000.000000	95.621	-35.8686
10150.000000	93.907	-34.1301
10300.000000	92.479	-30.7324
10440.000000	91.228	-27.1749
10600.000000	90.023	-22.4407
10750.000000	89.131	-18.0029
10900.000000	88.324	-13.1469
11060.000000	87.686	-8.6173
11200.000000	87.226	-4.7073
11380.000000	86.633	0.9527
11500.000000	86.247	5.3745
11720.000000	85.799	11.7772
11800.000000	85.651	15.0196
12060.000000	85.554	23.8831
12200.000000	85.675	27.5614
12410.000000	86.123	33.1096
12500.000000	86.327	35.6685
12650.000000	86.786	38.8680
12800.000000	87.536	41.3681
13150.000000	90.200	41.2220
13200.000000	90.629	39.6330
13400.000000	92.562	28.8493
13600.000000	93.621	5.9069
13800.000000	91.962	-19.1340
14000.000000	89.002	-31.8234
14300.000000	84.706	-36.3483
14500.000000	82.296	-36.8817
14750.000000	80.156	-29.6729
15000.000000	78.414	-27.5258
15250.000000	76.410	-17.0507
15500.000000	75.621	-10.4375
15750.000000	74.526	-1.9890
16000.000000	73.130	3.7215
16250.000000	72.715	10.6077
16500.000000	72.283	24.5637
16750.000000	72.472	31.2990
17000.000000	72.964	33.4062
17250.000000	73.516	41.3286
17500.000000	74.441	40.4617
17750.000000	75.919	42.0175
18000.000000	77.863	37.7340
18250.000000	79.133	27.5277
18500.000000	79.482	0.8405
18750.000000	74.797	-10.3519
19000.000000	78.773	17.8113
19250.000000	79.410	-15.6965
19500.000000	77.377	-31.1431
19750.000000	76.289	-42.4081
