* Measurement data measured by REW V5.31.1
* Source: EXCL: Micr√≥fono (Realtek(R) Audio), MICROPHONE (Volumen general), L, volume: 0,900. Timing signal peak level -11,7 dBFS, measurement signal peak level -10,3 dBFS
* Format: 512k Log Swept Sine, 1 sweep at -12,0 dBFS using an acoustic timing reference
* Dated: 12/09/2024 12:14:42 AM
* REW Settings:
*  C-weighting compensation: Off
*  Target level: 75.0 dB
* Note: Delay -0,0319 ms (-11 mm, -0,43 in) using estimated IR delay relative to Acoustic reference played from HEADPHONE R with no timing offset Clock adjustment: 19,4 ppm
* Measurement: 712 d6 mic 1
* Smoothing: None
* Frequency Step: 1/48 octave
* Start Frequency: 20.000 Hz
*
* Freq(Hz)	SPL(dB)	Phase(degrees)
20.000000	91.736	78.8526
20.299999	91.837	78.1357
20.600000	91.944	77.3577
20.900000	92.046	76.4948
21.200001	92.135	75.5646
21.400000	92.184	74.9413
21.799999	92.257	73.7612
22.000000	92.286	73.2360
22.400000	92.343	72.3446
22.700001	92.395	71.7789
23.000000	92.460	71.2336
23.299999	92.535	70.6482
23.600000	92.614	69.9959
24.000000	92.713	69.0270
24.299999	92.777	68.2657
24.700001	92.848	67.2667
25.000000	92.895	66.5570
25.400000	92.953	65.6689
25.799999	93.010	64.8324
26.200001	93.064	64.0421
26.500000	93.104	63.4863
26.900000	93.159	62.8012
27.200001	93.204	62.3207
27.600000	93.271	61.6940
28.000000	93.341	61.0407
28.500000	93.423	60.1666
29.000000	93.486	59.2999
29.500000	93.535	58.5479
30.000000	93.588	57.9366
30.400000	93.644	57.4781
30.700001	93.695	57.0995
31.100000	93.763	56.5021
31.500000	93.824	55.8011
32.000000	93.874	54.8593
32.500000	93.897	53.9794
33.000000	93.908	53.2668
33.500000	93.928	52.7277
34.000000	93.975	52.2601
34.500000	94.048	51.6961
35.000000	94.124	50.9311
35.500000	94.172	50.0386
36.000000	94.185	49.2470
36.500000	94.186	48.7290
37.000000	94.212	48.4184
37.500000	94.272	48.0804
38.200001	94.358	47.3418
38.700001	94.393	46.7653
39.500000	94.430	46.0594
40.000000	94.464	45.6713
40.599998	94.511	45.1257
41.200001	94.550	44.4677
41.799999	94.569	43.7579
42.500000	94.564	43.0637
43.099998	94.571	42.7030
43.700001	94.621	42.3549
44.400002	94.698	41.6620
45.000000	94.734	40.9543
45.500000	94.748	40.4967
46.200001	94.786	40.0466
46.799999	94.838	39.6151
47.500000	94.883	38.9668
48.200001	94.891	38.3872
48.700001	94.891	38.1169
49.400002	94.911	37.8020
50.000000	94.936	37.4042
50.799999	94.949	36.8058
51.500000	94.967	36.2761
52.200001	94.973	35.6033
53.000000	94.956	35.1948
53.799999	95.050	34.9252
54.500000	95.114	33.9723
55.200001	95.058	33.5976
56.000000	95.169	34.0952
57.000000	95.261	32.5519
58.000000	95.085	34.6078
59.000000	95.845	34.6888
60.000000	95.665	28.9557
60.799999	95.081	29.9796
61.500000	95.194	31.8485
62.200001	95.335	30.7950
63.000000	95.194	30.0051
64.000000	95.251	30.0049
65.000000	95.233	28.8549
66.000000	95.252	28.8189
67.000000	95.318	28.0316
68.000000	95.307	27.8020
69.000000	95.350	27.5309
70.000000	95.350	27.2897
71.000000	95.374	26.9932
72.000000	95.355	26.5494
73.000000	95.348	26.3785
74.000000	95.386	26.0022
75.000000	95.392	25.4399
76.199997	95.393	25.0886
77.500000	95.401	24.7230
78.800003	95.434	24.5122
80.000000	95.437	23.9907
81.199997	95.421	23.7971
82.500000	95.443	23.4606
83.800003	95.452	23.0521
85.000000	95.465	22.7550
86.199997	95.486	22.3607
87.500000	95.468	22.0388
88.500000	95.479	21.9366
90.000000	95.497	21.5540
91.199997	95.497	21.2133
92.500000	95.484	21.0139
93.800003	95.514	20.7842
95.000000	95.510	20.4233
96.199997	95.511	20.2889
97.500000	95.522	19.9817
98.800003	95.508	19.8530
100.000000	95.538	19.6850
101.500000	95.520	19.3403
103.000000	95.538	19.1379
104.400002	95.526	18.8144
106.000000	95.515	18.5146
107.500000	95.523	18.3679
109.000000	95.535	18.1166
110.599998	95.544	17.8900
112.000000	95.542	17.7860
113.800003	95.547	17.4308
115.000000	95.521	17.3984
117.199997	95.511	16.7422
118.000000	95.492	16.9481
120.599998	95.536	16.4547
122.000000	95.545	16.3201
124.099998	95.542	16.2837
125.000000	95.533	16.1130
126.500000	95.532	16.1461
128.000000	95.545	15.7701
131.500000	95.528	15.4747
132.000000	95.530	15.4850
134.000000	95.555	15.3607
136.000000	95.529	14.9838
138.000000	95.541	14.8757
140.000000	95.537	14.8141
143.000000	95.544	14.5927
145.000000	95.533	14.3198
147.500000	95.500	14.2896
150.000000	95.519	14.1455
152.500000	95.487	13.9599
155.000000	95.530	13.7212
157.500000	95.529	13.5266
160.000000	95.509	13.3976
162.500000	95.504	13.4061
165.000000	95.470	13.3210
167.500000	95.486	13.1288
170.000000	95.496	13.0978
172.500000	95.488	12.8929
175.000000	95.464	12.6412
177.500000	95.503	12.7438
180.000000	95.499	12.4498
182.500000	95.503	12.4868
185.000000	95.465	12.4025
187.500000	95.494	12.3044
190.000000	95.461	12.2758
192.500000	95.471	12.1898
195.000000	95.445	12.1007
197.500000	95.435	12.0043
200.000000	95.452	11.9454
203.000000	95.445	12.0730
206.000000	95.443	11.9037
209.000000	95.421	11.8077
212.000000	95.472	11.7649
214.000000	95.441	11.7905
218.000000	95.422	11.8236
220.000000	95.400	11.6161
224.000000	95.396	11.6649
227.000000	95.405	11.7015
230.000000	95.389	11.5977
233.000000	95.382	11.4966
236.000000	95.342	11.9666
240.000000	95.396	11.7581
243.000000	95.393	11.7382
247.000000	95.383	11.8423
250.000000	95.369	11.8434
254.000000	95.377	11.7340
258.000000	95.387	11.9338
262.000000	95.401	11.8872
265.000000	95.374	11.6871
269.000000	95.406	11.8186
272.000000	95.407	11.8483
276.000000	95.393	11.6483
280.000000	95.390	11.7303
285.000000	95.391	11.6714
290.000000	95.410	11.6383
295.000000	95.357	11.7193
300.000000	95.368	11.7897
304.000000	95.375	11.6559
307.000000	95.394	11.8337
311.000000	95.376	11.8711
315.000000	95.372	11.8585
320.000000	95.406	12.0302
325.000000	95.376	11.8337
330.000000	95.368	12.0048
335.000000	95.363	11.8145
340.000000	95.365	11.8934
345.000000	95.375	11.9996
350.000000	95.364	11.9290
355.000000	95.353	12.1044
360.000000	95.317	12.2443
365.000000	95.310	12.2617
370.000000	95.320	12.2982
375.000000	95.289	12.2364
382.000000	95.285	12.4298
387.000000	95.314	12.6508
395.000000	95.250	12.7654
400.000000	95.248	12.8492
406.000000	95.244	13.1262
412.000000	95.239	13.0887
418.000000	95.234	13.5715
425.000000	95.248	13.6338
431.000000	95.246	13.8655
437.000000	95.256	13.9874
444.000000	95.276	14.3145
450.000000	95.294	14.3700
455.000000	95.329	14.6014
462.000000	95.313	14.5713
468.000000	95.354	14.5071
475.000000	95.345	14.6210
482.000000	95.332	14.7508
487.000000	95.350	14.9088
494.000000	95.304	14.8989
500.000000	95.331	15.0514
508.000000	95.335	15.0524
515.000000	95.328	15.2533
522.000000	95.343	15.4689
530.000000	95.350	15.5469
538.000000	95.346	15.5566
545.000000	95.333	15.8167
552.000000	95.316	15.8948
560.000000	95.322	16.0457
570.000000	95.332	16.2032
580.000000	95.326	16.3571
590.000000	95.325	16.4117
600.000000	95.290	16.7686
608.000000	95.319	16.9469
615.000000	95.315	17.0820
622.000000	95.294	17.2286
630.000000	95.291	17.3849
640.000000	95.288	17.7778
650.000000	95.263	17.7124
660.000000	95.248	18.1550
670.000000	95.256	18.3140
680.000000	95.246	18.6395
690.000000	95.219	18.7844
700.000000	95.216	19.1256
710.000000	95.204	19.2878
720.000000	95.192	19.7020
730.000000	95.175	19.9675
740.000000	95.186	20.2295
750.000000	95.165	20.4302
762.000000	95.137	20.8655
775.000000	95.111	21.3905
788.000000	95.097	21.6833
800.000000	95.078	22.3642
812.000000	95.060	22.6623
825.000000	95.039	23.2863
838.000000	95.001	23.8375
850.000000	94.959	24.3859
862.000000	94.943	24.9426
875.000000	94.930	25.8033
885.000000	94.925	26.3450
900.000000	94.893	27.2152
912.000000	94.853	27.8503
925.000000	94.855	28.8454
938.000000	94.855	29.8403
950.000000	94.859	30.9515
962.000000	94.873	31.7352
975.000000	94.911	32.8381
988.000000	94.956	33.9507
1000.000000	95.002	35.0002
1015.000000	95.096	36.3781
1030.000000	95.216	37.8350
1044.000000	95.314	38.9541
1060.000000	95.513	40.2897
1075.000000	95.685	41.4737
1090.000000	95.917	42.3429
1106.000000	96.151	42.7940
1120.000000	96.390	43.3064
1138.000000	96.640	43.5819
1150.000000	96.787	43.5403
1172.000000	97.037	43.2660
1180.000000	97.118	43.1158
1206.000000	97.359	42.7384
1220.000000	97.438	42.5618
1241.000000	97.581	42.1719
1250.000000	97.633	42.1450
1265.000000	97.710	41.9065
1280.000000	97.747	41.8008
1315.000000	97.876	41.7092
1320.000000	97.905	41.7045
1340.000000	97.977	41.6299
1360.000000	98.035	41.7420
1380.000000	98.103	41.7615
1400.000000	98.161	41.9535
1430.000000	98.261	42.2407
1450.000000	98.324	42.5045
1475.000000	98.429	42.7275
1500.000000	98.509	43.1278
1525.000000	98.602	43.4908
1550.000000	98.699	43.7955
1575.000000	98.802	44.1371
1600.000000	98.920	44.5697
1625.000000	99.018	44.8646
1650.000000	99.133	45.1574
1675.000000	99.274	45.5332
1700.000000	99.398	45.8894
1725.000000	99.522	46.2727
1750.000000	99.659	46.6451
1775.000000	99.795	46.8502
1800.000000	99.948	47.2169
1825.000000	100.101	47.4692
1850.000000	100.247	47.7089
1875.000000	100.419	47.9088
1900.000000	100.580	48.0333
1925.000000	100.735	48.1410
1950.000000	100.927	48.3019
1975.000000	101.075	48.3140
2000.000000	101.275	48.3113
2030.000000	101.494	48.1811
2060.000000	101.737	48.1233
2090.000000	101.961	47.8034
2120.000000	102.203	47.4943
2140.000000	102.383	47.2056
2180.000000	102.731	46.4791
2200.000000	102.906	46.0156
2240.000000	103.255	45.0273
2270.000000	103.517	44.1918
2300.000000	103.747	43.2991
2330.000000	103.979	42.2492
2360.000000	104.202	41.0988
2400.000000	104.508	39.3729
2430.000000	104.695	37.9512
2470.000000	104.934	35.8864
2500.000000	105.070	34.2584
2540.000000	105.236	31.9360
2580.000000	105.365	29.3617
2620.000000	105.451	26.9704
2650.000000	105.471	25.0130
2690.000000	105.461	22.5713
2720.000000	105.435	20.7104
2760.000000	105.353	18.3367
2800.000000	105.231	16.1852
2850.000000	105.035	13.6964
2900.000000	104.795	11.5183
2950.000000	104.521	9.5768
3000.000000	104.229	8.0559
3040.000000	103.996	7.0492
3070.000000	103.820	6.4756
3110.000000	103.574	5.8776
3150.000000	103.342	5.3542
3200.000000	103.043	4.9774
3250.000000	102.763	4.8174
3300.000000	102.489	4.8112
3350.000000	102.223	5.1864
3400.000000	101.983	5.6504
3450.000000	101.764	6.1285
3500.000000	101.567	6.9062
3550.000000	101.384	7.7345
3600.000000	101.219	8.5729
3650.000000	101.079	9.5458
3700.000000	100.938	10.6082
3750.000000	100.829	11.8357
3820.000000	100.714	13.6058
3870.000000	100.666	14.7731
3950.000000	100.633	16.7800
4000.000000	100.643	18.0336
4060.000000	100.714	19.4279
4120.000000	100.793	20.7142
4180.000000	100.908	22.1237
4250.000000	101.077	23.5268
4310.000000	101.257	24.5640
4370.000000	101.497	25.3775
4440.000000	101.788	26.3543
4500.000000	102.104	26.8227
4550.000000	102.377	27.1279
4620.000000	102.859	26.6934
4680.000000	103.303	26.4138
4750.000000	103.835	25.5770
4820.000000	104.418	24.0697
4870.000000	104.844	22.3741
4940.000000	105.432	18.9443
5000.000000	105.846	15.0898
5080.000000	106.223	8.6200
5150.000000	106.277	2.1236
5220.000000	106.042	-3.6913
5300.000000	105.634	-8.4254
5380.000000	105.395	-12.5504
5450.000000	105.199	-17.3383
5520.000000	104.761	-22.7036
5600.000000	103.992	-28.2029
5700.000000	102.772	-32.9017
5800.000000	101.512	-35.1074
5900.000000	100.298	-35.3512
6000.000000	99.185	-34.4676
6080.000000	98.409	-33.4293
6150.000000	97.772	-32.0698
6220.000000	97.168	-30.8314
6300.000000	96.553	-28.6855
6400.000000	95.869	-26.2328
6500.000000	95.247	-23.2541
6600.000000	94.674	-20.3658
6700.000000	94.175	-17.3187
6800.000000	93.777	-14.1404
6900.000000	93.375	-10.7997
7000.000000	93.001	-7.2986
7100.000000	92.700	-3.6818
7200.000000	92.498	-0.3505
7300.000000	92.261	3.2891
7400.000000	92.142	6.6625
7500.000000	91.983	10.5521
7620.000000	92.224	15.6783
7750.000000	92.143	18.8721
7880.000000	92.261	22.8384
8000.000000	92.326	27.6052
8120.000000	92.730	30.4259
8250.000000	93.278	34.3210
8380.000000	93.748	36.9162
8500.000000	94.310	39.8667
8620.000000	94.991	41.9034
8750.000000	96.000	43.1869
8850.000000	96.915	43.0165
9000.000000	98.510	40.1878
9120.000000	99.986	33.8835
9250.000000	101.393	20.7838
9380.000000	101.708	1.9645
9500.000000	100.707	-14.7080
9620.000000	98.949	-25.7472
9750.000000	96.869	-31.9869
9880.000000	95.006	-34.6602
10000.000000	93.497	-34.6224
10150.000000	91.840	-32.8086
10300.000000	90.407	-30.4486
10440.000000	89.253	-27.5011
10600.000000	88.088	-22.6047
10750.000000	87.201	-18.8073
10900.000000	86.365	-14.1953
11060.000000	85.602	-9.3131
11200.000000	85.166	-4.5663
11380.000000	84.469	0.6293
11500.000000	84.131	4.8191
11720.000000	83.689	11.2700
11800.000000	83.705	15.0446
12060.000000	83.439	23.8993
12200.000000	83.538	27.4241
12410.000000	83.926	32.8044
12500.000000	84.014	36.0945
12650.000000	84.727	39.2750
12800.000000	85.396	41.0814
13150.000000	87.533	42.4960
13200.000000	87.989	42.4198
13400.000000	89.959	32.4988
13600.000000	91.401	12.9241
13800.000000	90.372	-12.5803
14000.000000	87.505	-27.9918
14300.000000	83.286	-33.5251
14500.000000	81.135	-33.0783
14750.000000	78.355	-28.5353
15000.000000	76.647	-24.8166
15250.000000	74.786	-16.3448
15500.000000	73.530	-5.9608
15750.000000	72.305	0.9144
16000.000000	71.682	7.2437
16250.000000	70.868	24.8540
16500.000000	71.155	22.2778
16750.000000	71.469	31.7632
17000.000000	70.258	30.3193
17250.000000	71.677	44.0908
17500.000000	72.556	44.7195
17750.000000	74.050	46.2378
18000.000000	75.618	39.4553
18250.000000	77.052	26.6445
18500.000000	77.141	5.1691
18750.000000	71.182	-0.9568
19000.000000	77.088	24.0121
19250.000000	77.963	-10.5071
19500.000000	76.088	-27.6080
19750.000000	75.051	-34.9336
