* Measurement data measured by REW V5.31.1
* Source: EXCL: Micr√≥fono (Realtek(R) Audio), MICROPHONE (Volumen general), L, volume: 0,900. Timing signal peak level -11,1 dBFS, measurement signal peak level -10,7 dBFS
* Format: 512k Log Swept Sine, 1 sweep at -12,0 dBFS using an acoustic timing reference
* Dated: 12/09/2024 06:36:46 PM
* REW Settings:
*  C-weighting compensation: Off
*  Target level: 75.0 dB
* Note: Delay -0,0313 ms (-11 mm, -0,42 in) using estimated IR delay relative to Acoustic reference played from HEADPHONE R with no timing offset Clock adjustment: 18,8 ppm
* Measurement: 712 d6 mic 1 v 1-3
* Smoothing: None
* Frequency Step: 1/48 octave
* Start Frequency: 20.000 Hz
*
* Freq(Hz)	SPL(dB)	Phase(degrees)
20.000000	97.118	75.1991
20.299999	97.216	74.1194
20.600000	97.295	72.9821
20.900000	97.352	71.8642
21.200001	97.389	70.8599
21.400000	97.409	70.2865
21.799999	97.456	69.3497
22.000000	97.488	68.9546
22.400000	97.577	68.2005
22.700001	97.657	67.5911
23.000000	97.737	66.9229
23.299999	97.810	66.2335
23.600000	97.878	65.5621
24.000000	97.964	64.7263
24.299999	98.032	64.1227
24.700001	98.127	63.2847
25.000000	98.193	62.6040
25.400000	98.266	61.6519
25.799999	98.317	60.7355
26.200001	98.357	59.9189
26.500000	98.385	59.3618
26.900000	98.426	58.6451
27.200001	98.456	58.1050
27.600000	98.493	57.3942
28.000000	98.530	56.7266
28.500000	98.595	55.8849
29.000000	98.675	54.7791
29.500000	98.713	53.3048
30.000000	98.655	51.8781
30.400000	98.557	51.2406
30.700001	98.495	51.1894
31.100000	98.490	51.4965
31.500000	98.596	51.7371
32.000000	98.813	51.2255
32.500000	98.977	49.8136
33.000000	99.012	48.3280
33.500000	98.982	47.4937
34.000000	99.009	47.2336
34.500000	99.121	46.8257
35.000000	99.232	45.8925
35.500000	99.264	44.7906
36.000000	99.235	44.0855
36.500000	99.226	43.8625
37.000000	99.275	43.6951
37.500000	99.344	43.2598
38.200001	99.396	42.4780
38.700001	99.426	42.0782
39.500000	99.528	41.2650
40.000000	99.576	40.4028
40.599998	99.567	39.3561
41.200001	99.532	38.7332
41.799999	99.544	38.3556
42.500000	99.601	37.6638
43.099998	99.621	36.9046
43.700001	99.618	36.3484
44.400002	99.644	35.9418
45.000000	99.697	35.4572
45.500000	99.723	34.8941
46.200001	99.710	34.2167
46.799999	99.695	34.0051
47.500000	99.744	33.8465
48.200001	99.820	33.2289
48.700001	99.838	32.5890
49.400002	99.815	31.8780
50.000000	99.804	31.5137
50.799999	99.824	31.0087
51.500000	99.844	30.5004
52.200001	99.875	30.0012
53.000000	99.908	29.2911
53.799999	99.903	28.7141
54.500000	99.922	28.4914
55.200001	99.974	28.0844
56.000000	99.978	27.4404
57.000000	99.970	27.2074
58.000000	100.001	26.6321
59.000000	99.957	26.4229
60.000000	100.079	26.0844
60.799999	100.076	24.7855
61.500000	99.969	24.4432
62.200001	100.000	24.6599
63.000000	100.105	23.7417
64.000000	99.982	22.7426
65.000000	100.032	23.1366
66.000000	100.110	22.0732
67.000000	100.052	21.9253
68.000000	100.158	21.5240
69.000000	100.095	20.6038
70.000000	100.050	20.7832
71.000000	100.099	20.5275
72.000000	100.111	20.0608
73.000000	100.111	19.5593
74.000000	100.102	19.1713
75.000000	100.105	18.7758
76.199997	100.112	18.3783
77.500000	100.114	17.7700
78.800003	100.104	17.4816
80.000000	100.121	17.1090
81.199997	100.127	16.7269
82.500000	100.131	16.3375
83.800003	100.125	15.8936
85.000000	100.129	15.6271
86.199997	100.124	15.0496
87.500000	100.094	14.8066
88.500000	100.102	14.4670
90.000000	100.080	14.2482
91.199997	100.128	13.9106
92.500000	100.104	13.3928
93.800003	100.099	13.2245
95.000000	100.092	12.9088
96.199997	100.088	12.7917
97.500000	100.119	12.4203
98.800003	100.097	11.9907
100.000000	100.104	11.8291
101.500000	100.099	11.3579
103.000000	100.089	11.1331
104.400002	100.091	10.7659
106.000000	100.061	10.4149
107.500000	100.054	10.2190
109.000000	100.056	10.0303
110.599998	100.045	9.7367
112.000000	100.053	9.5027
113.800003	100.023	9.2424
115.000000	100.036	9.0059
117.199997	100.060	8.5822
118.000000	100.040	8.2484
120.599998	100.012	8.1479
122.000000	99.980	7.9029
124.099998	99.970	7.7084
125.000000	99.968	7.5189
126.500000	99.980	7.2714
128.000000	99.970	6.8563
131.500000	99.914	6.4388
132.000000	99.904	6.6476
134.000000	99.957	5.9206
136.000000	99.929	5.9218
138.000000	99.886	5.7538
140.000000	99.916	5.4283
143.000000	99.900	5.0348
145.000000	99.860	5.0477
147.500000	99.837	4.8235
150.000000	99.838	4.4391
152.500000	99.799	4.0185
155.000000	99.817	3.7284
157.500000	99.795	3.4320
160.000000	99.766	3.2906
162.500000	99.755	3.1301
165.000000	99.731	2.7058
167.500000	99.724	2.5048
170.000000	99.705	2.3892
172.500000	99.699	2.0521
175.000000	99.674	2.0030
177.500000	99.660	1.7040
180.000000	99.631	1.4892
182.500000	99.624	1.3710
185.000000	99.592	1.2422
187.500000	99.549	0.8121
190.000000	99.609	0.9194
192.500000	99.539	0.7461
195.000000	99.511	0.4722
197.500000	99.488	0.4313
200.000000	99.468	0.1653
203.000000	99.448	0.0881
206.000000	99.432	-0.0262
209.000000	99.405	-0.3506
212.000000	99.384	-0.5104
214.000000	99.387	-0.7315
218.000000	99.328	-0.8486
220.000000	99.310	-1.0405
224.000000	99.294	-1.0154
227.000000	99.282	-1.1968
230.000000	99.246	-1.3835
233.000000	99.200	-1.4829
236.000000	99.175	-1.6027
240.000000	99.163	-1.8107
243.000000	99.112	-1.9008
247.000000	99.071	-1.9474
250.000000	99.093	-1.9546
254.000000	99.040	-2.2647
258.000000	98.993	-2.0923
262.000000	98.960	-2.2098
265.000000	98.943	-2.1354
269.000000	98.891	-2.3621
272.000000	98.906	-2.2302
276.000000	98.863	-2.3608
280.000000	98.872	-2.4756
285.000000	98.862	-2.6501
290.000000	98.762	-3.0352
295.000000	98.752	-2.8561
300.000000	98.740	-3.1624
304.000000	98.672	-3.2302
307.000000	98.638	-3.4256
311.000000	98.594	-3.5479
315.000000	98.597	-3.3983
320.000000	98.558	-3.6898
325.000000	98.501	-3.5882
330.000000	98.429	-3.6088
335.000000	98.374	-3.6979
340.000000	98.325	-3.6122
345.000000	98.278	-3.7241
350.000000	98.238	-3.5140
355.000000	98.209	-3.8541
360.000000	98.142	-3.6265
365.000000	98.029	-3.4494
370.000000	98.036	-3.1964
375.000000	97.942	-3.3907
382.000000	97.933	-2.9874
387.000000	97.878	-2.9501
395.000000	97.860	-2.7116
400.000000	97.858	-2.7050
406.000000	97.824	-2.3986
412.000000	97.776	-2.3898
418.000000	97.764	-2.8066
425.000000	97.671	-2.6022
431.000000	97.648	-2.7200
437.000000	97.580	-2.6040
444.000000	97.524	-2.4314
450.000000	97.492	-2.3412
455.000000	97.473	-2.3746
462.000000	97.386	-2.1334
468.000000	97.360	-2.0571
475.000000	97.270	-1.7094
482.000000	97.220	-1.6483
487.000000	97.171	-1.7142
494.000000	97.113	-1.3284
500.000000	97.080	-1.2897
508.000000	97.032	-0.9880
515.000000	96.967	-0.7566
522.000000	96.905	-0.8411
530.000000	96.854	-0.3362
538.000000	96.759	-0.1251
545.000000	96.726	0.1005
552.000000	96.680	0.5234
560.000000	96.604	0.6841
570.000000	96.517	1.3353
580.000000	96.462	1.6871
590.000000	96.332	2.2015
600.000000	96.287	2.7673
608.000000	96.222	3.2834
615.000000	96.123	3.3648
622.000000	96.098	4.0209
630.000000	96.083	4.3271
640.000000	96.004	4.8629
650.000000	95.854	5.1095
660.000000	95.843	6.1002
670.000000	95.783	6.8600
680.000000	95.726	7.5107
690.000000	95.612	8.1930
700.000000	95.570	8.9552
710.000000	95.495	9.6310
720.000000	95.446	10.2722
730.000000	95.379	11.0575
740.000000	95.311	12.0425
750.000000	95.292	12.7805
762.000000	95.225	14.1494
775.000000	95.168	15.1145
788.000000	95.108	16.4028
800.000000	95.094	17.9196
812.000000	95.061	18.9359
825.000000	95.029	20.2939
838.000000	95.019	21.6873
850.000000	95.014	22.7608
862.000000	95.018	24.3459
875.000000	95.049	25.7264
885.000000	95.094	26.6473
900.000000	95.105	28.4468
912.000000	95.155	29.7544
925.000000	95.198	31.3568
938.000000	95.309	32.9241
950.000000	95.392	34.0933
962.000000	95.454	35.6291
975.000000	95.586	36.8820
988.000000	95.677	38.6346
1000.000000	95.771	39.7753
1015.000000	95.938	42.0181
1030.000000	96.160	43.4016
1044.000000	96.408	45.1026
1060.000000	96.779	46.5552
1075.000000	97.093	47.8056
1090.000000	97.376	48.4863
1106.000000	97.785	48.6316
1120.000000	98.039	48.9815
1138.000000	98.417	48.7018
1150.000000	98.576	48.5161
1172.000000	98.935	47.7521
1180.000000	99.043	47.5553
1206.000000	99.341	46.6369
1220.000000	99.468	46.3647
1241.000000	99.663	45.4919
1250.000000	99.724	45.2744
1265.000000	99.813	44.8623
1280.000000	99.880	44.5465
1315.000000	100.059	43.7745
1320.000000	100.076	43.6518
1340.000000	100.136	43.4065
1360.000000	100.255	43.1328
1380.000000	100.302	43.0018
1400.000000	100.367	42.9812
1430.000000	100.472	42.8600
1450.000000	100.550	42.8365
1475.000000	100.637	42.9659
1500.000000	100.713	43.1230
1525.000000	100.796	43.2756
1550.000000	100.890	43.5062
1575.000000	100.988	43.6828
1600.000000	101.076	43.9069
1625.000000	101.206	44.1439
1650.000000	101.316	44.3743
1675.000000	101.424	44.6601
1700.000000	101.535	44.9730
1725.000000	101.664	45.1715
1750.000000	101.791	45.4277
1775.000000	101.921	45.7483
1800.000000	102.066	45.8849
1825.000000	102.212	46.1139
1850.000000	102.357	46.2867
1875.000000	102.518	46.3708
1900.000000	102.690	46.4944
1925.000000	102.848	46.5166
1950.000000	103.018	46.6003
1975.000000	103.210	46.5931
2000.000000	103.374	46.4814
2030.000000	103.610	46.4299
2060.000000	103.841	46.1622
2090.000000	104.068	45.8520
2120.000000	104.314	45.3897
2140.000000	104.495	45.0481
2180.000000	104.856	44.0728
2200.000000	105.035	43.6341
2240.000000	105.369	42.6159
2270.000000	105.621	41.6998
2300.000000	105.858	40.6938
2330.000000	106.088	39.5035
2360.000000	106.310	38.2799
2400.000000	106.574	36.4418
2430.000000	106.750	34.9976
2470.000000	106.976	32.8171
2500.000000	107.110	31.0762
2540.000000	107.267	28.6311
2580.000000	107.375	26.0726
2620.000000	107.424	23.4726
2650.000000	107.433	21.5016
2690.000000	107.409	19.0015
2720.000000	107.357	17.1891
2760.000000	107.262	14.7748
2800.000000	107.113	12.6239
2850.000000	106.900	10.1836
2900.000000	106.647	7.9570
2950.000000	106.352	6.1462
3000.000000	106.064	4.7661
3040.000000	105.816	3.7931
3070.000000	105.623	3.1889
3110.000000	105.370	2.6157
3150.000000	105.136	2.1819
3200.000000	104.832	1.8716
3250.000000	104.545	1.8889
3300.000000	104.266	1.9641
3350.000000	104.007	2.3046
3400.000000	103.772	2.7859
3450.000000	103.548	3.3955
3500.000000	103.345	4.2418
3550.000000	103.144	4.9708
3600.000000	102.995	5.9590
3650.000000	102.865	7.1100
3700.000000	102.745	8.1786
3750.000000	102.648	9.2723
3820.000000	102.544	10.9851
3870.000000	102.509	12.1359
3950.000000	102.508	13.9855
4000.000000	102.526	15.1271
4060.000000	102.567	16.4955
4120.000000	102.659	17.7385
4180.000000	102.770	18.9814
4250.000000	102.960	20.3499
4310.000000	103.137	21.3613
4370.000000	103.378	22.3713
4440.000000	103.665	23.2865
4500.000000	104.001	23.8477
4550.000000	104.297	24.0013
4620.000000	104.791	23.4677
4680.000000	105.258	22.9479
4750.000000	105.806	21.8223
4820.000000	106.388	20.0309
4870.000000	106.788	17.9012
4940.000000	107.307	14.0746
5000.000000	107.649	9.8223
5080.000000	107.802	3.4473
5150.000000	107.657	-1.3127
5220.000000	107.515	-4.4208
5300.000000	107.671	-8.3959
5380.000000	107.744	-15.1084
5450.000000	107.450	-21.8792
5520.000000	106.841	-27.9487
5600.000000	105.902	-33.2375
5700.000000	104.608	-37.3940
5800.000000	103.341	-39.1204
5900.000000	102.169	-39.3182
6000.000000	101.120	-38.6116
6080.000000	100.343	-37.4388
6150.000000	99.743	-36.2850
6220.000000	99.162	-35.0559
6300.000000	98.585	-33.3908
6400.000000	97.888	-31.0131
6500.000000	97.340	-28.5214
6600.000000	96.754	-25.7166
6700.000000	96.242	-23.1403
6800.000000	95.727	-19.9696
6900.000000	95.340	-16.6251
7000.000000	94.957	-13.5142
7100.000000	94.737	-10.0138
7200.000000	94.472	-6.6802
7300.000000	94.285	-3.8368
7400.000000	94.004	-0.5467
7500.000000	93.792	3.8800
7620.000000	93.988	8.0854
7750.000000	93.899	12.0996
7880.000000	93.965	17.4138
8000.000000	94.320	22.5075
8120.000000	94.761	26.2617
8250.000000	95.263	29.8529
8380.000000	95.918	32.6684
8500.000000	96.717	35.1357
8620.000000	97.634	36.4562
8750.000000	98.887	37.2467
8850.000000	100.168	36.1524
9000.000000	102.375	28.5063
9120.000000	104.057	14.6968
9250.000000	104.613	-8.5035
9380.000000	103.061	-29.9948
9500.000000	100.814	-41.3594
9620.000000	98.598	-46.5626
9750.000000	96.533	-48.1832
9880.000000	94.740	-47.4415
10000.000000	93.286	-45.6389
10150.000000	91.800	-42.1207
10300.000000	90.521	-38.1527
10440.000000	89.477	-34.6017
10600.000000	88.557	-29.4167
10750.000000	87.558	-25.4423
10900.000000	86.849	-20.0675
11060.000000	86.193	-15.0525
11200.000000	85.826	-10.0532
11380.000000	85.209	-3.4133
11500.000000	84.894	-0.0571
11720.000000	84.467	8.1370
11800.000000	84.542	10.2987
12060.000000	84.612	18.4331
12200.000000	84.731	21.9293
12410.000000	85.104	27.5360
12500.000000	85.213	30.6100
12650.000000	85.729	33.6302
12800.000000	86.486	35.8989
13150.000000	88.934	34.3921
13200.000000	89.366	32.7439
13400.000000	91.185	21.9803
13600.000000	91.867	0.8986
13800.000000	90.390	-20.4248
14000.000000	87.597	-32.8846
14300.000000	83.790	-38.3511
14500.000000	81.821	-35.4951
14750.000000	79.658	-31.9551
15000.000000	77.759	-25.2444
15250.000000	76.008	-20.4651
15500.000000	74.414	-14.0881
15750.000000	73.923	-6.6001
16000.000000	73.061	4.1921
16250.000000	72.712	7.4823
16500.000000	72.381	14.9292
16750.000000	71.765	24.0388
17000.000000	72.303	27.0489
17250.000000	72.815	35.0299
17500.000000	73.887	39.1326
17750.000000	75.521	42.0782
18000.000000	76.836	36.9111
18250.000000	78.659	19.5704
18500.000000	78.303	-1.5267
18750.000000	72.436	5.8840
19000.000000	79.047	4.7543
19250.000000	78.170	-20.2309
19500.000000	76.413	-32.3026
19750.000000	75.411	-40.7665
