* Measurement data measured by REW V5.31.1
* Source: EXCL: Micr√≥fono (Realtek(R) Audio), MICROPHONE (Volumen general), L, volume: 0,900. Timing signal peak level -11,6 dBFS, measurement signal peak level -10,6 dBFS
* Format: 512k Log Swept Sine, 1 sweep at -12,0 dBFS using an acoustic timing reference
* Dated: 6/10/2024 11:16:23 PM
* REW Settings:
*  C-weighting compensation: Off
*  Target level: 75.0 dB
* Note: Delay -0,0319 ms (-11 mm, -0,43 in) using estimated IR delay relative to Acoustic reference played from HEADPHONE R with no timing offset Clock adjustment: 18,9 ppm
* Measurement: V16 mic 1
* Smoothing: None
* Frequency Step: 1/48 octave
* Start Frequency: 20.000 Hz
*
* Freq(Hz)	SPL(dB)	Phase(degrees)
20.000000	90.236	81.1514
20.299999	90.312	80.4796
20.600000	90.397	79.8585
20.900000	90.493	79.2291
21.200001	90.593	78.5405
21.400000	90.658	78.0422
21.799999	90.775	76.9852
22.000000	90.825	76.4509
22.400000	90.913	75.4300
22.700001	90.973	74.7277
23.000000	91.036	74.0678
23.299999	91.104	73.4116
23.600000	91.175	72.7280
24.000000	91.266	71.7521
24.299999	91.326	70.9899
24.700001	91.393	69.9888
25.000000	91.435	69.2856
25.400000	91.488	68.4283
25.799999	91.544	67.6382
26.200001	91.603	66.8797
26.500000	91.646	66.3275
26.900000	91.703	65.6306
27.200001	91.745	65.1512
27.600000	91.808	64.5675
28.000000	91.881	64.0048
28.500000	91.984	63.2385
29.000000	92.081	62.3531
29.500000	92.158	61.4106
30.000000	92.210	60.5406
30.400000	92.244	59.9564
30.700001	92.273	59.5832
31.100000	92.320	59.1304
31.500000	92.379	58.6678
32.000000	92.461	57.9964
32.500000	92.535	57.2158
33.000000	92.592	56.4106
33.500000	92.636	55.6614
34.000000	92.678	54.9767
34.500000	92.721	54.3194
35.000000	92.763	53.6816
35.500000	92.804	53.0811
36.000000	92.851	52.4941
36.500000	92.901	51.8618
37.000000	92.941	51.1864
37.500000	92.967	50.5651
38.200001	93.009	49.9011
38.700001	93.065	49.4412
39.500000	93.156	48.3963
40.000000	93.177	47.7095
40.599998	93.180	47.1699
41.200001	93.216	46.9141
41.799999	93.295	46.5699
42.500000	93.376	45.8433
43.099998	93.402	45.2331
43.700001	93.422	44.8099
44.400002	93.460	44.2959
45.000000	93.474	43.7115
45.500000	93.462	43.2865
46.200001	93.450	42.9136
46.799999	93.475	42.6002
47.500000	93.525	42.0333
48.200001	93.585	41.2531
48.700001	93.622	40.5439
49.400002	93.634	39.5128
50.000000	93.621	38.9216
50.799999	93.646	38.5278
51.500000	93.703	38.2295
52.200001	93.771	37.9106
53.000000	93.818	37.3665
53.799999	93.784	37.2594
54.500000	93.846	37.5735
55.200001	93.942	36.7360
56.000000	93.768	35.6165
57.000000	93.799	36.4247
58.000000	93.845	32.1021
59.000000	92.841	32.6472
60.000000	93.509	38.2887
60.799999	94.123	34.3698
61.500000	93.948	31.6144
62.200001	93.854	32.0841
63.000000	94.062	31.9318
64.000000	94.092	31.0741
65.000000	94.166	31.1229
66.000000	94.160	30.7263
67.000000	94.171	30.7682
68.000000	94.149	30.1078
69.000000	94.094	29.9181
70.000000	94.128	29.4221
71.000000	94.118	28.6916
72.000000	94.122	28.3309
73.000000	94.166	27.9281
74.000000	94.181	27.5385
75.000000	94.207	27.3356
76.199997	94.224	26.9518
77.500000	94.257	26.5393
78.800003	94.230	25.8849
80.000000	94.255	25.7626
81.199997	94.297	25.0854
82.500000	94.264	24.7023
83.800003	94.287	24.6747
85.000000	94.307	24.2714
86.199997	94.280	24.0962
87.500000	94.315	23.9093
88.500000	94.328	23.4608
90.000000	94.302	23.0033
91.199997	94.313	22.7772
92.500000	94.312	22.4999
93.800003	94.341	22.1730
95.000000	94.316	21.8223
96.199997	94.341	21.7355
97.500000	94.344	21.3015
98.800003	94.358	21.1644
100.000000	94.356	20.9744
101.500000	94.393	20.7018
103.000000	94.360	20.5337
104.400002	94.379	20.2023
106.000000	94.355	19.8925
107.500000	94.341	19.6752
109.000000	94.345	19.3904
110.599998	94.334	19.2321
112.000000	94.351	18.9226
113.800003	94.341	18.7375
115.000000	94.366	18.3602
117.199997	94.347	18.0052
118.000000	94.352	18.0081
120.599998	94.316	17.5514
122.000000	94.327	17.4080
124.099998	94.322	17.1895
125.000000	94.319	16.9839
126.500000	94.316	16.8501
128.000000	94.335	16.7259
131.500000	94.304	16.4503
132.000000	94.300	16.4734
134.000000	94.286	16.1768
136.000000	94.294	16.0801
138.000000	94.312	15.8065
140.000000	94.298	15.7594
143.000000	94.325	15.5718
145.000000	94.285	14.8884
147.500000	94.260	15.0538
150.000000	94.267	14.9194
152.500000	94.258	14.5867
155.000000	94.242	14.4789
157.500000	94.235	14.6006
160.000000	94.165	14.2926
162.500000	94.154	14.2096
165.000000	94.215	14.2302
167.500000	94.164	14.1974
170.000000	94.136	13.9503
172.500000	94.080	13.4894
175.000000	94.137	13.5942
177.500000	94.160	13.6737
180.000000	94.176	13.5717
182.500000	94.119	13.4559
185.000000	94.076	13.6082
187.500000	94.115	13.5326
190.000000	94.055	13.3373
192.500000	94.031	13.1034
195.000000	94.042	13.0089
197.500000	94.058	12.9234
200.000000	94.104	13.5942
203.000000	94.011	13.0900
206.000000	93.935	12.7235
209.000000	93.954	12.5793
212.000000	93.950	12.7988
214.000000	93.944	12.6259
218.000000	93.923	12.7863
220.000000	93.870	13.0410
224.000000	93.816	12.9592
227.000000	93.763	12.9240
230.000000	93.724	13.0897
233.000000	93.775	12.8168
236.000000	93.679	13.1257
240.000000	93.666	13.8991
243.000000	93.676	13.5873
247.000000	93.689	14.0326
250.000000	93.694	14.0394
254.000000	93.700	13.9791
258.000000	93.696	14.2991
262.000000	93.638	14.1166
265.000000	93.693	14.1183
269.000000	93.649	14.3230
272.000000	93.660	14.3634
276.000000	93.638	14.1250
280.000000	93.613	14.3387
285.000000	93.617	14.7023
290.000000	93.564	14.6285
295.000000	93.588	15.0099
300.000000	93.527	14.9000
304.000000	93.547	15.2769
307.000000	93.520	15.2535
311.000000	93.498	15.4713
315.000000	93.494	15.8633
320.000000	93.439	15.7305
325.000000	93.425	16.1658
330.000000	93.419	16.2471
335.000000	93.376	16.6310
340.000000	93.393	16.7342
345.000000	93.361	17.0271
350.000000	93.362	17.0753
355.000000	93.331	17.2040
360.000000	93.328	17.5764
365.000000	93.284	17.9280
370.000000	93.273	18.1112
375.000000	93.261	18.2476
382.000000	93.215	18.6448
387.000000	93.160	19.1558
395.000000	93.160	19.6249
400.000000	93.004	19.5383
406.000000	93.129	20.1231
412.000000	93.048	20.4246
418.000000	93.019	21.3464
425.000000	93.039	21.5519
431.000000	93.029	22.2383
437.000000	93.009	22.4850
444.000000	93.007	23.2003
450.000000	92.934	23.6061
455.000000	92.931	23.8995
462.000000	92.960	24.3470
468.000000	92.951	24.9688
475.000000	92.947	25.3317
482.000000	92.920	25.9745
487.000000	92.918	26.5634
494.000000	92.896	27.2738
500.000000	92.912	27.5087
508.000000	92.892	28.4818
515.000000	92.912	29.3344
522.000000	92.929	30.0033
530.000000	92.915	30.5583
538.000000	92.927	31.3356
545.000000	92.934	32.1204
552.000000	92.946	32.9665
560.000000	92.957	33.6831
570.000000	92.999	34.5507
580.000000	93.025	35.4771
590.000000	93.030	36.6264
600.000000	93.221	37.9843
608.000000	93.149	38.4573
615.000000	93.193	39.1974
622.000000	93.259	39.8437
630.000000	93.307	40.7925
640.000000	93.361	41.8932
650.000000	93.441	42.7272
660.000000	93.587	43.4473
670.000000	93.607	44.7301
680.000000	93.719	45.2944
690.000000	93.835	46.1666
700.000000	93.889	46.7930
710.000000	93.988	48.0135
720.000000	94.093	48.4933
730.000000	94.256	49.3717
740.000000	94.376	50.0141
750.000000	94.488	50.6482
762.000000	94.622	51.5724
775.000000	94.763	52.1865
788.000000	94.910	53.0968
800.000000	94.992	54.1447
812.000000	95.199	54.2733
825.000000	95.345	55.0955
838.000000	95.468	55.6837
850.000000	95.604	56.1875
862.000000	95.728	56.6992
875.000000	95.902	57.2957
885.000000	95.975	57.6526
900.000000	96.157	58.6521
912.000000	96.247	59.0769
925.000000	96.371	59.6909
938.000000	96.523	60.2244
950.000000	96.670	60.9121
962.000000	96.824	61.5003
975.000000	97.000	62.1366
988.000000	97.145	62.8951
1000.000000	97.318	63.4672
1015.000000	97.529	64.2010
1030.000000	97.790	64.7513
1044.000000	98.018	65.3145
1060.000000	98.304	65.6846
1075.000000	98.612	66.0389
1090.000000	98.909	66.1280
1106.000000	99.230	65.9080
1120.000000	99.526	65.5719
1138.000000	99.820	64.8015
1150.000000	100.004	64.1844
1172.000000	100.331	63.0488
1180.000000	100.428	62.6378
1206.000000	100.686	61.2511
1220.000000	100.815	60.3363
1241.000000	100.974	59.2390
1250.000000	101.027	58.9163
1265.000000	101.101	58.1562
1280.000000	101.194	57.6516
1315.000000	101.343	56.2031
1320.000000	101.368	56.2365
1340.000000	101.444	55.5620
1360.000000	101.515	55.0683
1380.000000	101.598	54.5402
1400.000000	101.662	54.3327
1430.000000	101.745	53.7358
1450.000000	101.818	53.3621
1475.000000	101.891	53.0801
1500.000000	101.969	52.9727
1525.000000	102.047	52.7129
1550.000000	102.124	52.5653
1575.000000	102.219	52.4721
1600.000000	102.301	52.2608
1625.000000	102.404	52.3966
1650.000000	102.508	52.3371
1675.000000	102.605	52.4023
1700.000000	102.706	52.3935
1725.000000	102.799	52.3679
1750.000000	102.930	52.4731
1775.000000	103.049	52.4614
1800.000000	103.178	52.4991
1825.000000	103.303	52.5507
1850.000000	103.427	52.6765
1875.000000	103.566	52.6277
1900.000000	103.716	52.5561
1925.000000	103.848	52.5236
1950.000000	103.991	52.4602
1975.000000	104.151	52.3906
2000.000000	104.308	52.3694
2030.000000	104.500	52.0922
2060.000000	104.718	51.8965
2090.000000	104.917	51.5933
2120.000000	105.138	51.2054
2140.000000	105.285	50.8871
2180.000000	105.559	50.2569
2200.000000	105.715	49.7531
2240.000000	106.001	48.9235
2270.000000	106.238	48.1292
2300.000000	106.454	47.1415
2330.000000	106.670	46.1782
2360.000000	106.883	45.0028
2400.000000	107.140	43.2837
2430.000000	107.344	41.8626
2470.000000	107.574	39.8052
2500.000000	107.736	38.1547
2540.000000	107.908	35.7231
2580.000000	108.054	33.2119
2620.000000	108.154	30.5557
2650.000000	108.201	28.5884
2690.000000	108.204	25.9311
2720.000000	108.199	23.9536
2760.000000	108.123	21.3318
2800.000000	108.004	18.8340
2850.000000	107.841	16.0599
2900.000000	107.615	13.3916
2950.000000	107.334	11.2173
3000.000000	107.038	9.3262
3040.000000	106.797	8.1414
3070.000000	106.600	7.3473
3110.000000	106.351	6.4170
3150.000000	106.096	5.7562
3200.000000	105.777	5.0372
3250.000000	105.468	4.7773
3300.000000	105.180	4.6253
3350.000000	104.918	4.6362
3400.000000	104.650	4.7345
3450.000000	104.404	5.2381
3500.000000	104.185	5.7256
3550.000000	103.975	6.4335
3600.000000	103.807	7.0760
3650.000000	103.642	7.9849
3700.000000	103.494	8.8783
3750.000000	103.374	9.8495
3820.000000	103.238	11.2170
3870.000000	103.178	12.4052
3950.000000	103.104	14.0906
4000.000000	103.096	15.3758
4060.000000	103.116	16.6905
4120.000000	103.159	18.2037
4180.000000	103.248	19.3760
4250.000000	103.406	20.7898
4310.000000	103.568	21.8443
4370.000000	103.762	22.6735
4440.000000	104.020	23.7456
4500.000000	104.303	24.4025
4550.000000	104.568	24.8854
4620.000000	104.975	25.0756
4680.000000	105.358	24.8802
4750.000000	105.860	24.0731
4820.000000	106.370	22.5060
4870.000000	106.734	21.0036
4940.000000	107.268	18.0793
5000.000000	107.704	14.7185
5080.000000	108.143	8.6049
5150.000000	108.270	2.2841
5220.000000	108.093	-3.7529
5300.000000	107.689	-9.1653
5380.000000	107.410	-13.2126
5450.000000	107.208	-17.7751
5520.000000	106.844	-23.0497
5600.000000	106.130	-28.7817
5700.000000	104.976	-34.0999
5800.000000	103.739	-37.1254
5900.000000	102.511	-38.1613
6000.000000	101.399	-37.9481
6080.000000	100.524	-37.1410
6150.000000	99.845	-36.0325
6220.000000	99.206	-34.4686
6300.000000	98.528	-32.5782
6400.000000	97.780	-30.0925
6500.000000	97.101	-27.3522
6600.000000	96.465	-24.2686
6700.000000	95.928	-21.1271
6800.000000	95.434	-17.9868
6900.000000	94.973	-14.5416
7000.000000	94.653	-11.0256
7100.000000	94.254	-7.8507
7200.000000	93.934	-4.0760
7300.000000	93.690	-0.2926
7400.000000	93.541	3.2688
7500.000000	93.301	6.9706
7620.000000	93.415	12.8645
7750.000000	93.360	16.1196
7880.000000	93.315	20.1499
8000.000000	93.293	24.6214
8120.000000	93.647	28.4444
8250.000000	94.074	33.3145
8380.000000	94.412	35.5524
8500.000000	94.764	38.8517
8620.000000	95.242	41.6942
8750.000000	96.014	44.0065
8850.000000	96.578	45.0635
9000.000000	97.677	46.2877
9120.000000	98.774	45.4516
9250.000000	100.172	42.3127
9380.000000	101.689	34.9969
9500.000000	102.912	22.6702
9620.000000	103.265	5.5376
9750.000000	102.200	-11.9670
9880.000000	100.269	-23.4996
10000.000000	98.400	-29.0436
10150.000000	96.316	-31.5209
10300.000000	94.521	-30.9062
10440.000000	93.005	-29.2258
10600.000000	91.594	-25.8551
10750.000000	90.589	-21.9712
10900.000000	89.535	-18.7098
11060.000000	88.688	-13.9668
11200.000000	87.928	-9.5707
11380.000000	87.077	-3.9225
11500.000000	86.751	0.2908
11720.000000	86.057	7.5373
11800.000000	85.820	10.3239
12060.000000	85.684	17.6860
12200.000000	85.739	22.2145
12410.000000	85.823	28.7825
12500.000000	86.028	31.3901
12650.000000	86.332	33.8248
12800.000000	86.923	37.6211
13150.000000	88.938	39.2685
13200.000000	89.280	39.4337
13400.000000	91.051	33.8771
13600.000000	92.831	19.1064
13800.000000	92.904	-6.1867
14000.000000	90.480	-26.6205
14300.000000	86.143	-38.4479
14500.000000	83.514	-37.8904
14750.000000	81.222	-34.0003
15000.000000	78.738	-26.5225
15250.000000	77.111	-24.6421
15500.000000	75.478	-17.1106
15750.000000	74.524	-9.6061
16000.000000	73.011	-2.6332
16250.000000	72.147	9.0631
16500.000000	72.586	14.9669
16750.000000	71.610	21.5961
17000.000000	71.845	30.9511
17250.000000	72.368	35.8378
17500.000000	73.262	38.6458
17750.000000	74.690	40.5294
18000.000000	75.713	35.1242
18250.000000	77.182	30.1344
18500.000000	77.875	9.9994
18750.000000	72.447	-5.0351
19000.000000	76.337	41.5628
19250.000000	79.222	5.5736
19500.000000	78.458	-19.7604
19750.000000	76.749	-33.9139
