* Measurement data measured by REW V5.31.1
* Source: EXCL: Micr√≥fono (Realtek(R) Audio), MICROPHONE (Volumen general), L, volume: 0,900. Timing signal peak level -11,7 dBFS, measurement signal peak level -10,4 dBFS
* Format: 512k Log Swept Sine, 1 sweep at -12,0 dBFS using an acoustic timing reference
* Dated: 17/09/2024 12:21:01 PM
* REW Settings:
*  C-weighting compensation: Off
*  Target level: 75.0 dB
* Note: Delay -0,0654 ms (-22 mm, -0,88 in) using estimated IR delay relative to Acoustic reference played from HEADPHONE R with no timing offset Clock adjustment: 18,5 ppm
* Measurement: 712 V11 mic 1
* Smoothing: None
* Frequency Step: 1/48 octave
* Start Frequency: 20.000 Hz
*
* Freq(Hz)	SPL(dB)	Phase(degrees)
20.000000	92.419	101.5009
20.299999	92.479	100.5474
20.600000	92.542	99.8440
20.900000	92.631	99.3436
21.200001	92.760	98.9018
21.400000	92.866	98.5342
21.799999	93.104	97.5109
22.000000	93.220	96.8351
22.400000	93.418	95.2376
22.700001	93.526	93.9835
23.000000	93.604	92.8348
23.299999	93.668	91.8559
23.600000	93.734	91.0296
24.000000	93.840	90.0583
24.299999	93.932	89.3234
24.700001	94.057	88.2693
25.000000	94.142	87.4496
25.400000	94.242	86.3990
25.799999	94.338	85.4480
26.200001	94.444	84.5416
26.500000	94.528	83.8258
26.900000	94.634	82.7859
27.200001	94.700	81.9785
27.600000	94.768	80.9711
28.000000	94.831	80.1405
28.500000	94.940	79.2733
29.000000	95.088	78.2490
29.500000	95.225	76.8694
30.000000	95.294	75.4218
30.400000	95.309	74.5653
30.700001	95.323	74.1906
31.100000	95.386	73.9167
31.500000	95.509	73.5924
32.000000	95.698	72.6975
32.500000	95.834	71.3020
33.000000	95.876	69.9475
33.500000	95.869	69.0776
34.000000	95.889	68.6378
34.500000	95.960	68.2076
35.000000	96.046	67.5346
35.500000	96.112	66.7030
36.000000	96.161	65.8858
36.500000	96.213	65.0866
37.000000	96.270	64.2006
37.500000	96.315	63.2243
38.200001	96.351	61.9730
38.700001	96.382	61.2901
39.500000	96.490	60.3197
40.000000	96.573	59.6031
40.599998	96.651	58.6732
41.200001	96.692	57.9348
41.799999	96.731	57.5378
42.500000	96.821	57.1835
43.099998	96.899	56.5807
43.700001	96.924	55.8782
44.400002	96.936	55.3079
45.000000	96.991	54.6278
45.500000	97.013	53.6151
46.200001	96.931	52.2967
46.799999	96.887	52.0221
47.500000	97.037	51.3810
48.200001	97.119	49.4502
48.700001	97.030	48.5691
49.400002	96.997	49.2723
50.000000	97.229	49.7573
50.799999	97.474	48.6010
51.500000	97.478	48.0035
52.200001	97.488	47.9188
53.000000	97.427	47.7068
53.799999	97.413	47.8021
54.500000	97.408	46.3586
55.200001	97.138	45.1062
56.000000	97.187	45.5168
57.000000	97.468	39.9263
58.000000	97.146	40.2574
59.000000	98.973	36.0664
60.000000	98.314	18.1089
60.799999	95.696	23.9867
61.500000	96.661	39.3999
62.200001	98.070	37.5882
63.000000	97.846	34.8427
64.000000	97.959	39.5155
65.000000	98.120	38.2127
66.000000	97.876	39.2721
67.000000	97.909	38.4557
68.000000	97.741	37.5685
69.000000	97.788	36.5148
70.000000	97.797	35.2229
71.000000	97.861	34.6251
72.000000	97.964	34.3605
73.000000	98.052	33.9799
74.000000	98.071	33.8191
75.000000	98.084	33.2631
76.199997	97.916	32.6207
77.500000	97.889	33.3318
78.800003	98.116	31.9547
80.000000	97.993	31.0114
81.199997	98.153	31.0559
82.500000	98.103	30.0469
83.800003	98.131	30.0994
85.000000	98.095	29.5741
86.199997	98.109	29.2543
87.500000	98.108	28.6206
88.500000	98.130	28.4123
90.000000	98.215	27.7052
91.199997	98.182	27.2642
92.500000	98.197	27.0529
93.800003	98.172	26.7573
95.000000	98.202	26.4758
96.199997	98.212	25.8404
97.500000	98.185	25.4405
98.800003	98.232	25.2097
100.000000	98.232	24.7439
101.500000	98.258	24.5986
103.000000	98.262	24.0892
104.400002	98.252	23.7969
106.000000	98.262	23.4637
107.500000	98.246	22.9679
109.000000	98.264	22.8624
110.599998	98.282	22.3927
112.000000	98.291	22.1333
113.800003	98.301	21.7173
115.000000	98.271	21.5503
117.199997	98.284	21.3646
118.000000	98.318	21.3082
120.599998	98.313	20.3667
122.000000	98.307	20.1355
124.099998	98.321	19.5549
125.000000	98.290	19.4916
126.500000	98.289	19.3356
128.000000	98.315	19.2186
131.500000	98.313	18.5502
132.000000	98.311	18.4446
134.000000	98.302	18.0258
136.000000	98.259	17.8986
138.000000	98.294	17.8239
140.000000	98.300	17.3369
143.000000	98.276	17.0215
145.000000	98.283	16.7750
147.500000	98.268	16.5977
150.000000	98.249	16.3819
152.500000	98.279	16.0236
155.000000	98.260	15.7963
157.500000	98.288	15.6160
160.000000	98.286	15.3906
162.500000	98.293	15.0914
165.000000	98.280	14.6063
167.500000	98.294	14.5391
170.000000	98.243	14.2609
172.500000	98.233	13.8224
175.000000	98.244	13.9116
177.500000	98.226	13.7103
180.000000	98.166	13.7498
182.500000	98.152	13.3975
185.000000	98.180	13.0325
187.500000	98.177	12.7030
190.000000	98.167	12.4841
192.500000	98.168	12.3774
195.000000	98.156	12.1736
197.500000	98.169	11.9930
200.000000	98.151	11.8892
203.000000	98.162	11.5507
206.000000	98.126	11.6150
209.000000	98.095	11.3411
212.000000	98.139	11.0387
214.000000	98.101	11.1321
218.000000	98.085	10.8052
220.000000	98.098	10.8260
224.000000	98.071	10.7988
227.000000	98.033	10.4401
230.000000	98.023	10.3583
233.000000	97.998	10.2166
236.000000	98.015	10.0818
240.000000	97.977	10.0612
243.000000	97.989	9.8934
247.000000	97.931	9.8817
250.000000	97.932	9.8419
254.000000	97.904	9.7582
258.000000	97.901	9.7838
262.000000	97.916	9.3232
265.000000	97.867	9.2317
269.000000	97.878	9.7695
272.000000	97.851	9.2262
276.000000	97.898	9.3714
280.000000	97.833	9.7078
285.000000	97.792	8.9481
290.000000	97.811	9.2367
295.000000	97.797	9.1248
300.000000	97.809	8.2330
304.000000	97.722	8.8987
307.000000	97.748	8.8658
311.000000	97.701	8.8415
315.000000	97.699	8.8524
320.000000	97.660	8.8630
325.000000	97.629	8.9113
330.000000	97.604	8.6828
335.000000	97.571	8.5082
340.000000	97.524	8.6302
345.000000	97.537	8.6171
350.000000	97.493	8.6940
355.000000	97.510	8.9467
360.000000	97.455	8.7001
365.000000	97.407	8.9208
370.000000	97.401	8.8959
375.000000	97.408	8.9055
382.000000	97.352	8.9990
387.000000	97.317	9.0886
395.000000	97.288	9.1516
400.000000	97.252	9.2905
406.000000	97.204	9.2296
412.000000	97.142	9.5524
418.000000	97.119	9.8041
425.000000	97.041	10.1492
431.000000	97.030	10.6332
437.000000	97.063	11.2236
444.000000	97.107	11.3173
450.000000	97.094	11.3080
455.000000	97.109	11.4050
462.000000	97.084	11.2607
468.000000	97.075	11.3240
475.000000	97.043	11.3767
482.000000	97.017	11.5597
487.000000	97.005	11.6073
494.000000	96.980	11.7395
500.000000	96.984	11.8052
508.000000	96.961	12.0891
515.000000	96.948	12.3577
522.000000	96.865	12.4177
530.000000	96.875	12.7784
538.000000	96.853	12.8918
545.000000	96.834	13.0334
552.000000	96.792	13.0662
560.000000	96.766	13.3779
570.000000	96.740	13.6810
580.000000	96.707	14.2290
590.000000	96.644	14.2786
600.000000	96.633	14.8055
608.000000	96.629	15.0210
615.000000	96.589	15.2026
622.000000	96.579	15.4725
630.000000	96.526	15.8031
640.000000	96.502	15.9374
650.000000	96.478	16.3787
660.000000	96.378	16.8788
670.000000	96.395	17.1573
680.000000	96.372	17.4333
690.000000	96.350	17.9814
700.000000	96.356	18.2958
710.000000	96.297	18.8268
720.000000	96.250	19.0599
730.000000	96.215	19.5950
740.000000	96.188	20.1835
750.000000	96.156	20.4745
762.000000	96.082	21.2990
775.000000	96.066	21.7513
788.000000	96.038	22.3827
800.000000	95.956	22.8386
812.000000	95.946	23.7350
825.000000	95.881	24.3202
838.000000	95.841	25.0764
850.000000	95.802	25.9133
862.000000	95.739	26.5911
875.000000	95.717	27.5419
885.000000	95.672	28.0451
900.000000	95.622	29.3372
912.000000	95.615	30.2018
925.000000	95.549	31.4326
938.000000	95.543	32.6308
950.000000	95.536	33.7429
962.000000	95.516	34.8316
975.000000	95.490	36.0031
988.000000	95.511	37.5891
1000.000000	95.563	38.8059
1015.000000	95.576	40.5324
1030.000000	95.646	42.2648
1044.000000	95.750	44.1360
1060.000000	95.956	45.7735
1075.000000	96.143	47.5275
1090.000000	96.369	48.4635
1106.000000	96.616	49.5149
1120.000000	96.840	50.1291
1138.000000	97.064	50.8196
1150.000000	97.272	50.9676
1172.000000	97.517	51.1642
1180.000000	97.572	51.4147
1206.000000	97.792	51.2408
1220.000000	97.890	51.2544
1241.000000	98.001	51.3787
1250.000000	98.064	51.5366
1265.000000	98.131	51.5673
1280.000000	98.209	51.8083
1315.000000	98.337	52.0396
1320.000000	98.347	52.0275
1340.000000	98.424	52.6332
1360.000000	98.489	53.0515
1380.000000	98.562	53.4787
1400.000000	98.630	54.0585
1430.000000	98.713	54.6779
1450.000000	98.805	55.1700
1475.000000	98.888	55.9684
1500.000000	99.022	56.7505
1525.000000	99.076	57.4529
1550.000000	99.181	58.0333
1575.000000	99.291	58.9231
1600.000000	99.413	59.6275
1625.000000	99.533	60.4279
1650.000000	99.668	61.2492
1675.000000	99.807	62.0450
1700.000000	99.938	62.8128
1725.000000	100.103	63.5248
1750.000000	100.244	64.0732
1775.000000	100.409	64.9274
1800.000000	100.565	65.5507
1825.000000	100.735	66.2495
1850.000000	100.894	66.7909
1875.000000	101.066	67.3296
1900.000000	101.266	67.7641
1925.000000	101.441	68.2167
1950.000000	101.651	68.6258
1975.000000	101.857	68.9955
2000.000000	102.054	69.3786
2030.000000	102.287	69.6558
2060.000000	102.541	69.8144
2090.000000	102.786	70.0319
2120.000000	103.048	70.0813
2140.000000	103.220	69.9926
2180.000000	103.548	69.7769
2200.000000	103.743	69.5799
2240.000000	104.085	69.0894
2270.000000	104.327	68.5298
2300.000000	104.578	67.9353
2330.000000	104.823	67.0915
2360.000000	105.045	66.1564
2400.000000	105.329	64.8297
2430.000000	105.535	63.5804
2470.000000	105.786	61.8695
2500.000000	105.924	60.4414
2540.000000	106.107	58.4249
2580.000000	106.219	56.3080
2620.000000	106.294	54.2179
2650.000000	106.325	52.6621
2690.000000	106.320	50.5612
2720.000000	106.298	49.2147
2760.000000	106.226	47.4293
2800.000000	106.115	45.7307
2850.000000	105.955	43.8406
2900.000000	105.755	42.1500
2950.000000	105.550	40.9116
3000.000000	105.313	40.0711
3040.000000	105.127	39.5318
3070.000000	104.969	39.4199
3110.000000	104.786	39.0538
3150.000000	104.607	39.0072
3200.000000	104.387	39.1595
3250.000000	104.165	39.4744
3300.000000	103.977	39.8854
3350.000000	103.811	40.4219
3400.000000	103.660	41.2141
3450.000000	103.518	42.0458
3500.000000	103.387	42.9334
3550.000000	103.293	43.8018
3600.000000	103.231	44.8174
3650.000000	103.171	45.9811
3700.000000	103.104	47.1144
3750.000000	103.078	48.2852
3820.000000	103.070	49.8948
3870.000000	103.078	51.0350
3950.000000	103.133	52.9192
4000.000000	103.202	54.0701
4060.000000	103.327	55.3146
4120.000000	103.434	56.6031
4180.000000	103.616	57.7619
4250.000000	103.834	58.9992
4310.000000	104.031	59.8402
4370.000000	104.278	60.6525
4440.000000	104.597	61.3438
4500.000000	104.902	61.6091
4550.000000	105.187	61.7065
4620.000000	105.605	61.5128
4680.000000	105.987	60.8329
4750.000000	106.477	59.4428
4820.000000	106.986	57.2284
4870.000000	107.321	55.2165
4940.000000	107.770	51.3421
5000.000000	108.042	47.1312
5080.000000	108.159	40.6534
5150.000000	107.980	35.1641
5220.000000	107.668	31.2671
5300.000000	107.506	27.8234
5380.000000	107.441	22.5209
5450.000000	107.159	16.6653
5520.000000	106.602	10.9766
5600.000000	105.718	5.5692
5700.000000	104.448	0.8152
5800.000000	103.108	-1.7703
5900.000000	101.826	-2.6801
6000.000000	100.604	-2.3882
6080.000000	99.674	-1.7584
6150.000000	98.888	-0.5001
6220.000000	98.183	1.1433
6300.000000	97.405	3.1485
6400.000000	96.519	5.7239
6500.000000	95.602	8.9868
6600.000000	94.863	12.3398
6700.000000	94.182	15.9572
6800.000000	93.497	19.5800
6900.000000	92.834	23.7961
7000.000000	92.266	27.4831
7100.000000	91.725	32.1746
7200.000000	91.263	36.8123
7300.000000	90.875	40.9799
7400.000000	90.347	45.3883
7500.000000	90.048	51.0220
7620.000000	90.063	56.7324
7750.000000	89.727	62.3591
7880.000000	89.494	68.2243
8000.000000	89.487	74.6532
8120.000000	89.360	79.6896
8250.000000	89.863	85.5059
8380.000000	89.996	91.2231
8500.000000	90.576	95.3394
8620.000000	91.212	100.2627
8750.000000	92.144	103.2037
8850.000000	93.094	104.1408
9000.000000	94.883	102.9576
9120.000000	96.634	96.2527
9250.000000	98.134	78.3405
9380.000000	97.527	53.2600
9500.000000	95.095	36.5934
9620.000000	92.288	29.8167
9750.000000	89.576	28.7801
9880.000000	87.173	30.8902
10000.000000	85.383	34.1375
10150.000000	82.932	40.5127
10300.000000	81.160	48.2565
10440.000000	79.398	56.2647
10600.000000	77.605	64.2203
10750.000000	76.240	75.8011
10900.000000	74.723	87.9046
11060.000000	73.710	101.6386
11200.000000	72.690	116.5776
11380.000000	71.526	135.9373
11500.000000	72.066	149.9164
11720.000000	73.077	170.1957
11800.000000	74.118	-179.8441
12060.000000	77.071	-165.4173
12200.000000	78.542	-164.1489
12410.000000	78.917	-166.0212
12500.000000	78.792	-162.4275
12650.000000	79.696	-152.4423
12800.000000	81.008	-147.9826
13150.000000	84.404	-148.8731
13200.000000	84.871	-150.2620
13400.000000	86.916	-156.2248
13600.000000	88.639	-174.1163
13800.000000	88.117	161.2157
14000.000000	85.756	145.4627
14300.000000	81.763	137.1750
14500.000000	79.946	139.2944
14750.000000	77.612	143.5074
15000.000000	76.133	150.8146
15250.000000	73.777	155.4305
15500.000000	73.021	161.4500
15750.000000	71.939	178.6421
16000.000000	71.602	179.0007
16250.000000	70.160	-170.7417
16500.000000	70.715	-165.4141
16750.000000	70.808	-157.8187
17000.000000	70.279	-153.5840
17250.000000	69.165	-143.2564
17500.000000	70.919	-145.8252
17750.000000	72.387	-145.4579
18000.000000	72.520	-153.0147
18250.000000	74.032	-165.0101
18500.000000	72.008	171.8804
18750.000000	64.845	-178.9892
19000.000000	71.137	-154.9693
19250.000000	71.082	-178.7442
19500.000000	70.200	167.4426
19750.000000	67.950	161.9280
