* Measurement data measured by REW V5.31.1
* Source: EXCL: Micr√≥fono (Realtek(R) Audio), MICROPHONE (Volumen general), L, volume: 0,900. Timing signal peak level -16,9 dBFS, measurement signal peak level -15,3 dBFS
* Format: 512k Log Swept Sine, 1 sweep at -12,0 dBFS using an acoustic timing reference
* Dated: 12/09/2024 12:22:28 AM
* REW Settings:
*  C-weighting compensation: Off
*  Target level: 75.0 dB
* Note: Delay -0,0324 ms (-11 mm, -0,44 in) using estimated IR delay relative to Acoustic reference played from HEADPHONE R with no timing offset Clock adjustment: 19,5 ppm
* Measurement: 712 d6 mic 2
* Smoothing: None
* Frequency Step: 1/48 octave
* Start Frequency: 20.000 Hz
*
* Freq(Hz)	SPL(dB)	Phase(degrees)
20.000000	92.661	89.9255
20.299999	92.757	88.8117
20.600000	92.835	87.7794
20.900000	92.905	86.8826
21.200001	92.982	86.1194
21.400000	93.043	85.6432
21.799999	93.185	84.6695
22.000000	93.262	84.1306
22.400000	93.409	82.9154
22.700001	93.504	81.9355
23.000000	93.580	80.9804
23.299999	93.645	80.1103
23.600000	93.707	79.3373
24.000000	93.799	78.4152
24.299999	93.877	77.7372
24.700001	93.986	76.7838
25.000000	94.063	76.0315
25.400000	94.152	75.0334
25.799999	94.231	74.1157
26.200001	94.312	73.2942
26.500000	94.379	72.7041
26.900000	94.478	71.8847
27.200001	94.554	71.2119
27.600000	94.647	70.2369
28.000000	94.721	69.2272
28.500000	94.788	68.0343
29.000000	94.842	67.0103
29.500000	94.903	66.1382
30.000000	94.980	65.3018
30.400000	95.047	64.5826
30.700001	95.093	64.0071
31.100000	95.143	63.2372
31.500000	95.182	62.5362
32.000000	95.230	61.8239
32.500000	95.303	61.2017
33.000000	95.399	60.4444
33.500000	95.482	59.4620
34.000000	95.524	58.4377
34.500000	95.538	57.6464
35.000000	95.570	57.1236
35.500000	95.644	56.5927
36.000000	95.734	55.7849
36.500000	95.792	54.7534
37.000000	95.804	53.8047
37.500000	95.801	53.1456
38.200001	95.840	52.5151
38.700001	95.897	51.9937
39.500000	95.978	50.9995
40.000000	96.020	50.4155
40.599998	96.077	49.7189
41.200001	96.127	48.9282
41.799999	96.150	48.1349
42.500000	96.157	47.4131
43.099998	96.175	46.9519
43.700001	96.212	46.4858
44.400002	96.267	45.8170
45.000000	96.306	45.1372
45.500000	96.327	44.5682
46.200001	96.350	43.8913
46.799999	96.385	43.3872
47.500000	96.434	42.7103
48.200001	96.465	42.0274
48.700001	96.484	41.6349
49.400002	96.524	41.0796
50.000000	96.543	40.4978
50.799999	96.531	39.8977
51.500000	96.540	39.5320
52.200001	96.555	38.9857
53.000000	96.551	38.4080
53.799999	96.590	37.7657
54.500000	96.599	36.9343
55.200001	96.599	36.5726
56.000000	96.747	36.0301
57.000000	96.757	34.3189
58.000000	96.870	35.8060
59.000000	97.524	33.4464
60.000000	97.141	28.9511
60.799999	96.715	30.9828
61.500000	96.883	32.6810
62.200001	96.988	32.0518
63.000000	96.873	31.9147
64.000000	96.919	32.1139
65.000000	96.862	31.1024
66.000000	96.815	30.9065
67.000000	96.851	30.0294
68.000000	96.824	29.4012
69.000000	96.884	29.0114
70.000000	96.924	28.2968
71.000000	96.919	27.9698
72.000000	96.945	27.7390
73.000000	96.943	27.3807
74.000000	96.945	27.1873
75.000000	96.978	26.7341
76.199997	96.982	25.9799
77.500000	96.978	25.3311
78.800003	96.987	24.9775
80.000000	97.013	24.5523
81.199997	97.005	24.2916
82.500000	96.982	23.9319
83.800003	96.999	24.0482
85.000000	97.044	23.1230
86.199997	96.980	22.7656
87.500000	97.021	22.2949
88.500000	97.005	21.9689
90.000000	97.035	21.5488
91.199997	97.019	21.3315
92.500000	97.052	20.9589
93.800003	97.013	20.5991
95.000000	97.039	20.4418
96.199997	97.046	19.9436
97.500000	97.033	19.6472
98.800003	97.033	19.3403
100.000000	97.024	19.2709
101.500000	97.054	18.8168
103.000000	97.024	18.6585
104.400002	97.051	18.1493
106.000000	97.029	17.8358
107.500000	97.034	17.4760
109.000000	97.032	17.2460
110.599998	97.021	17.0807
112.000000	97.019	16.7191
113.800003	97.014	16.6196
115.000000	97.023	16.1824
117.199997	97.045	16.0305
118.000000	97.089	15.7501
120.599998	96.999	15.2190
122.000000	97.013	15.2411
124.099998	96.969	14.8733
125.000000	96.995	14.8208
126.500000	96.971	14.3559
128.000000	96.989	14.3158
131.500000	97.002	13.9009
132.000000	96.999	13.7832
134.000000	96.976	13.7423
136.000000	96.977	13.4080
138.000000	96.970	12.9629
140.000000	96.953	12.8817
143.000000	96.959	12.5433
145.000000	96.961	12.4609
147.500000	96.946	12.1379
150.000000	96.905	11.9760
152.500000	96.886	11.3564
155.000000	96.857	11.0942
157.500000	96.890	11.1150
160.000000	96.922	11.0919
162.500000	96.917	10.7725
165.000000	96.924	10.5220
167.500000	96.803	10.8463
170.000000	96.864	10.1781
172.500000	96.823	9.8503
175.000000	96.849	10.2310
177.500000	96.836	9.9529
180.000000	96.881	9.8149
182.500000	96.845	9.8125
185.000000	96.807	9.7620
187.500000	96.764	9.7827
190.000000	96.726	9.5930
192.500000	96.788	9.5975
195.000000	96.738	9.4971
197.500000	96.723	9.3519
200.000000	96.758	9.1133
203.000000	96.780	9.0082
206.000000	96.777	9.0193
209.000000	96.754	8.7767
212.000000	96.746	8.4484
214.000000	96.778	8.4474
218.000000	96.660	9.5902
220.000000	96.731	8.7007
224.000000	96.728	8.1933
227.000000	96.749	8.0445
230.000000	96.700	8.1432
233.000000	96.730	7.9384
236.000000	96.697	7.7232
240.000000	96.680	7.7198
243.000000	96.674	7.6389
247.000000	96.666	7.4053
250.000000	96.667	7.5999
254.000000	96.678	7.3505
258.000000	96.636	7.1608
262.000000	96.609	7.2103
265.000000	96.644	7.0170
269.000000	96.636	7.0659
272.000000	96.601	6.9443
276.000000	96.589	7.0411
280.000000	96.568	7.0240
285.000000	96.591	6.7548
290.000000	96.584	7.2287
295.000000	96.546	6.9154
300.000000	96.562	6.9676
304.000000	96.541	6.6711
307.000000	96.534	6.5001
311.000000	96.524	6.7827
315.000000	96.497	6.5898
320.000000	96.483	6.4952
325.000000	96.488	6.5750
330.000000	96.439	6.4974
335.000000	96.435	6.5624
340.000000	96.420	6.8111
345.000000	96.393	6.4518
350.000000	96.384	6.7604
355.000000	96.390	6.7359
360.000000	96.381	6.7695
365.000000	96.387	6.7651
370.000000	96.408	6.8452
375.000000	96.370	6.9285
382.000000	96.350	6.9852
387.000000	96.353	6.8359
395.000000	96.347	6.8811
400.000000	96.352	6.8501
406.000000	96.309	6.7936
412.000000	96.327	6.8763
418.000000	96.284	6.8589
425.000000	96.286	7.0753
431.000000	96.263	6.8651
437.000000	96.272	7.0593
444.000000	96.225	6.9578
450.000000	96.220	7.0039
455.000000	96.210	7.1986
462.000000	96.214	7.1321
468.000000	96.149	7.3569
475.000000	96.162	7.3843
482.000000	96.145	7.2098
487.000000	96.159	7.3080
494.000000	96.124	7.5314
500.000000	96.099	7.7643
508.000000	96.088	7.7224
515.000000	96.068	7.6646
522.000000	96.067	7.9008
530.000000	96.043	7.9380
538.000000	96.040	8.1760
545.000000	96.007	7.9744
552.000000	96.004	8.1453
560.000000	95.978	8.2662
570.000000	95.934	8.4427
580.000000	95.972	8.6960
590.000000	95.911	8.8364
600.000000	95.916	8.8330
608.000000	95.894	9.0432
615.000000	95.828	9.3157
622.000000	95.827	9.4300
630.000000	95.835	9.4182
640.000000	95.773	9.6508
650.000000	95.786	9.8173
660.000000	95.725	10.2532
670.000000	95.752	10.3138
680.000000	95.689	10.5549
690.000000	95.657	10.7719
700.000000	95.624	11.0875
710.000000	95.600	11.2683
720.000000	95.567	11.5554
730.000000	95.569	11.7308
740.000000	95.525	11.9104
750.000000	95.493	12.4915
762.000000	95.456	12.6415
775.000000	95.448	12.9578
788.000000	95.352	13.6512
800.000000	95.338	13.9577
812.000000	95.312	14.3547
825.000000	95.275	14.9929
838.000000	95.212	15.5126
850.000000	95.160	16.1489
862.000000	95.157	16.7066
875.000000	95.101	17.3261
885.000000	95.063	17.8927
900.000000	95.015	18.6431
912.000000	95.006	19.4426
925.000000	95.003	20.4214
938.000000	94.967	21.2178
950.000000	94.949	22.2454
962.000000	94.967	23.0123
975.000000	94.975	24.3112
988.000000	94.930	25.3018
1000.000000	94.999	26.3021
1015.000000	95.093	27.8978
1030.000000	95.143	29.3271
1044.000000	95.210	30.6190
1060.000000	95.408	32.2268
1075.000000	95.588	33.4411
1090.000000	95.814	34.5655
1106.000000	96.078	35.1165
1120.000000	96.265	35.4503
1138.000000	96.493	35.8984
1150.000000	96.663	35.8607
1172.000000	96.875	35.6432
1180.000000	96.947	35.6132
1206.000000	97.209	35.1014
1220.000000	97.284	34.8943
1241.000000	97.400	34.6798
1250.000000	97.463	34.5896
1265.000000	97.537	34.3846
1280.000000	97.575	34.2348
1315.000000	97.717	34.1053
1320.000000	97.731	34.1525
1340.000000	97.791	34.0535
1360.000000	97.866	34.2305
1380.000000	97.883	34.2112
1400.000000	97.950	34.3384
1430.000000	98.067	34.7262
1450.000000	98.111	34.7807
1475.000000	98.151	35.1064
1500.000000	98.267	35.3375
1525.000000	98.353	35.8234
1550.000000	98.431	36.1467
1575.000000	98.554	36.4531
1600.000000	98.636	36.8853
1625.000000	98.735	37.1331
1650.000000	98.823	37.5479
1675.000000	98.948	37.8826
1700.000000	99.079	38.1965
1725.000000	99.203	38.4125
1750.000000	99.321	38.8498
1775.000000	99.462	39.0441
1800.000000	99.574	39.2571
1825.000000	99.736	39.5098
1850.000000	99.882	39.8984
1875.000000	100.004	39.9869
1900.000000	100.196	40.1366
1925.000000	100.355	40.1862
1950.000000	100.494	40.3674
1975.000000	100.672	40.1671
2000.000000	100.842	40.0997
2030.000000	101.058	40.1331
2060.000000	101.261	39.9345
2090.000000	101.486	39.8476
2120.000000	101.715	39.4363
2140.000000	101.861	39.1431
2180.000000	102.153	38.4238
2200.000000	102.314	38.0844
2240.000000	102.604	37.0681
2270.000000	102.835	36.1413
2300.000000	103.049	35.2077
2330.000000	103.263	34.1002
2360.000000	103.460	32.9436
2400.000000	103.714	31.1280
2430.000000	103.894	29.6882
2470.000000	104.089	27.4904
2500.000000	104.213	25.7977
2540.000000	104.355	23.3848
2580.000000	104.460	20.8702
2620.000000	104.516	18.2170
2650.000000	104.523	16.3297
2690.000000	104.496	13.6219
2720.000000	104.449	11.8054
2760.000000	104.345	9.3633
2800.000000	104.200	7.1615
2850.000000	103.982	4.5618
2900.000000	103.716	2.3809
2950.000000	103.429	0.4531
3000.000000	103.123	-1.0811
3040.000000	102.847	-2.2378
3070.000000	102.674	-2.8572
3110.000000	102.403	-3.5501
3150.000000	102.157	-3.9254
3200.000000	101.847	-4.4850
3250.000000	101.537	-4.6052
3300.000000	101.249	-4.6158
3350.000000	100.990	-4.4654
3400.000000	100.711	-4.0766
3450.000000	100.499	-3.7028
3500.000000	100.277	-2.8570
3550.000000	100.068	-2.2529
3600.000000	99.896	-1.4308
3650.000000	99.719	-0.4332
3700.000000	99.616	0.3808
3750.000000	99.464	1.4764
3820.000000	99.322	3.1097
3870.000000	99.275	4.1694
3950.000000	99.183	6.0825
4000.000000	99.152	7.2614
4060.000000	99.210	8.6921
4120.000000	99.253	9.9267
4180.000000	99.341	11.2445
4250.000000	99.442	12.9058
4310.000000	99.602	13.8519
4370.000000	99.788	14.8926
4440.000000	100.018	15.9423
4500.000000	100.318	16.4814
4550.000000	100.510	16.9698
4620.000000	100.896	17.3905
4680.000000	101.271	17.2053
4750.000000	101.757	16.5148
4820.000000	102.266	15.1077
4870.000000	102.654	13.5457
4940.000000	103.182	10.4336
5000.000000	103.547	6.6328
5080.000000	103.876	0.4070
5150.000000	103.864	-5.5806
5220.000000	103.595	-10.6147
5300.000000	103.313	-14.6033
5380.000000	103.231	-19.1304
5450.000000	103.038	-24.7123
5520.000000	102.571	-30.4227
5600.000000	101.750	-36.0685
5700.000000	100.540	-40.9602
5800.000000	99.245	-43.6594
5900.000000	97.967	-44.6642
6000.000000	96.800	-44.0059
6080.000000	95.963	-42.8210
6150.000000	95.265	-41.5316
6220.000000	94.663	-39.9960
6300.000000	93.976	-38.0451
6400.000000	93.240	-34.9070
6500.000000	92.571	-32.0880
6600.000000	91.909	-28.8455
6700.000000	91.404	-25.5573
6800.000000	90.909	-21.6702
6900.000000	90.396	-18.3292
7000.000000	90.037	-14.5881
7100.000000	89.718	-11.2802
7200.000000	89.371	-6.4956
7300.000000	89.148	-3.0573
7400.000000	89.008	1.4082
7500.000000	88.737	4.8677
7620.000000	88.946	10.7444
7750.000000	88.948	14.4797
7880.000000	88.934	18.2280
8000.000000	89.057	24.2054
8120.000000	89.270	27.4565
8250.000000	89.789	30.9893
8380.000000	90.164	33.6012
8500.000000	90.652	36.3169
8620.000000	91.129	38.5895
8750.000000	91.716	41.0009
8850.000000	92.299	42.3433
9000.000000	93.438	43.3047
9120.000000	94.488	42.3932
9250.000000	95.950	38.9201
9380.000000	97.523	30.5023
9500.000000	98.564	16.2051
9620.000000	98.403	-2.0388
9750.000000	96.901	-17.7371
9880.000000	94.787	-26.6027
10000.000000	92.906	-30.0895
10150.000000	90.870	-30.8651
10300.000000	89.153	-29.3912
10440.000000	87.817	-26.2049
10600.000000	86.440	-21.4865
10750.000000	85.439	-17.9783
10900.000000	84.608	-15.1130
11060.000000	83.710	-8.5675
11200.000000	82.933	-2.6541
11380.000000	82.492	1.6742
11500.000000	82.047	6.0632
11720.000000	81.648	12.8236
11800.000000	81.224	14.8372
12060.000000	81.395	24.7706
12200.000000	81.287	27.7038
12410.000000	81.601	33.4518
12500.000000	81.619	35.6825
12650.000000	82.228	41.3194
12800.000000	82.732	43.8030
13150.000000	84.788	47.5761
13200.000000	84.977	46.2532
13400.000000	87.015	42.7256
13600.000000	88.763	27.6058
13800.000000	88.946	2.3280
14000.000000	86.817	-18.8701
14300.000000	82.505	-29.7995
14500.000000	80.234	-31.3903
14750.000000	77.533	-27.1024
15000.000000	75.142	-24.9838
15250.000000	73.924	-18.7398
15500.000000	72.543	-13.8851
15750.000000	70.453	-8.9330
16000.000000	70.297	-2.5977
16250.000000	68.587	12.8419
16500.000000	69.074	14.9308
16750.000000	68.614	18.2100
17000.000000	67.886	30.2532
17250.000000	66.826	26.8868
17500.000000	69.064	38.3413
17750.000000	70.294	45.9427
18000.000000	71.120	40.4224
18250.000000	72.621	36.1272
18500.000000	72.870	13.3592
18750.000000	66.470	10.0353
19000.000000	73.691	44.9982
19250.000000	75.942	16.7915
19500.000000	74.859	-15.0289
19750.000000	72.949	-23.6273
