* Measurement data measured by REW V5.31.1
* Source: EXCL: Micr√≥fono (Realtek(R) Audio), MICROPHONE (Volumen general), L, volume: 0,900. Timing signal peak level -12,9 dBFS, measurement signal peak level -11,6 dBFS
* Format: 512k Log Swept Sine, 1 sweep at -12,0 dBFS using an acoustic timing reference
* Dated: 12/09/2024 12:24:30 AM
* REW Settings:
*  C-weighting compensation: Off
*  Target level: 75.0 dB
* Note: Delay -0,0653 ms (-22 mm, -0,88 in) using estimated IR delay relative to Acoustic reference played from HEADPHONE R with no timing offset Clock adjustment: 19,6 ppm
* Measurement: 712 flaco mic 1
* Smoothing: None
* Frequency Step: 1/48 octave
* Start Frequency: 20.000 Hz
*
* Freq(Hz)	SPL(dB)	Phase(degrees)
20.000000	93.919	100.1201
20.299999	94.048	99.0125
20.600000	94.162	97.8966
20.900000	94.259	96.8239
21.200001	94.347	95.8393
21.400000	94.404	95.2382
21.799999	94.526	94.1340
22.000000	94.594	93.6035
22.400000	94.739	92.5139
22.700001	94.852	91.6352
23.000000	94.959	90.7040
23.299999	95.057	89.7578
23.600000	95.144	88.8366
24.000000	95.252	87.6936
24.299999	95.332	86.9031
24.700001	95.445	85.8983
25.000000	95.532	85.1458
25.400000	95.647	84.1223
25.799999	95.753	83.0960
26.200001	95.851	82.1023
26.500000	95.921	81.3827
26.900000	96.014	80.4383
27.200001	96.080	79.7257
27.600000	96.161	78.7701
28.000000	96.231	77.8414
28.500000	96.311	76.7672
29.000000	96.397	75.7590
29.500000	96.489	74.7263
30.000000	96.577	73.6453
30.400000	96.641	72.7936
30.700001	96.688	72.1837
31.100000	96.754	71.3973
31.500000	96.825	70.6071
32.000000	96.908	69.5961
32.500000	96.979	68.6361
33.000000	97.046	67.8211
33.500000	97.126	67.1103
34.000000	97.217	66.3628
34.500000	97.297	65.5319
35.000000	97.350	64.7267
35.500000	97.390	64.0635
36.000000	97.438	63.4973
36.500000	97.495	62.8789
37.000000	97.546	62.1414
37.500000	97.578	61.3726
38.200001	97.616	60.4091
38.700001	97.663	59.7187
39.500000	97.746	58.3585
40.000000	97.782	57.4908
40.599998	97.824	56.6480
41.200001	97.900	55.9341
41.799999	97.996	55.1407
42.500000	98.085	54.1677
43.099998	98.137	53.4884
43.700001	98.179	52.9679
44.400002	98.222	52.4653
45.000000	98.251	52.0378
45.500000	98.267	51.6317
46.200001	98.274	51.0076
46.799999	98.282	50.4077
47.500000	98.295	49.4665
48.200001	98.290	48.4510
48.700001	98.303	47.8519
49.400002	98.376	46.9261
50.000000	98.432	45.9915
50.799999	98.497	45.3482
51.500000	98.638	44.9452
52.200001	98.708	44.2281
53.000000	98.706	44.5616
53.799999	98.856	44.5503
54.500000	98.736	43.4541
55.200001	98.496	44.4175
56.000000	98.704	44.3322
57.000000	98.202	39.7627
58.000000	98.265	42.1251
59.000000	98.877	28.0193
60.000000	95.278	20.5934
60.799999	95.640	45.9648
61.500000	98.323	43.4609
62.200001	98.775	34.2982
63.000000	98.368	34.2041
64.000000	99.131	35.3864
65.000000	99.054	33.8647
66.000000	99.183	35.8421
67.000000	99.170	34.8889
68.000000	99.060	35.3160
69.000000	99.040	34.2462
70.000000	98.962	33.4096
71.000000	98.988	32.3537
72.000000	99.017	31.7530
73.000000	99.129	31.2938
74.000000	99.189	30.8452
75.000000	99.217	30.6792
76.199997	99.217	30.3965
77.500000	99.181	30.0598
78.800003	99.193	29.2394
80.000000	99.172	28.4725
81.199997	99.206	27.8969
82.500000	99.246	27.4676
83.800003	99.285	27.0176
85.000000	99.276	26.7304
86.199997	99.274	26.3558
87.500000	99.271	25.9224
88.500000	99.290	25.3676
90.000000	99.282	24.7020
91.199997	99.295	24.4046
92.500000	99.332	24.0870
93.800003	99.326	23.7433
95.000000	99.343	23.3644
96.199997	99.301	22.9219
97.500000	99.317	22.6911
98.800003	99.329	22.1646
100.000000	99.344	21.7740
101.500000	99.350	21.4061
103.000000	99.369	21.0143
104.400002	99.370	20.6893
106.000000	99.369	20.3561
107.500000	99.372	19.9109
109.000000	99.365	19.5588
110.599998	99.380	19.2239
112.000000	99.376	18.8182
113.800003	99.391	18.4729
115.000000	99.387	18.1735
117.199997	99.375	17.6190
118.000000	99.355	17.4731
120.599998	99.377	16.9332
122.000000	99.375	16.6708
124.099998	99.378	16.3331
125.000000	99.375	16.1750
126.500000	99.373	15.8374
128.000000	99.356	15.6318
131.500000	99.375	14.9421
132.000000	99.363	14.7834
134.000000	99.369	14.5471
136.000000	99.357	14.1734
138.000000	99.336	13.7389
140.000000	99.328	13.4425
143.000000	99.315	13.1640
145.000000	99.292	12.4386
147.500000	99.285	12.2420
150.000000	99.288	12.0604
152.500000	99.254	11.8346
155.000000	99.224	11.4766
157.500000	99.214	11.4709
160.000000	99.317	10.6841
162.500000	99.259	10.4614
165.000000	99.149	10.7941
167.500000	99.256	10.6481
170.000000	99.248	11.0833
172.500000	99.149	10.3325
175.000000	99.154	9.2867
177.500000	99.160	9.5549
180.000000	99.194	9.1365
182.500000	99.138	8.9081
185.000000	99.150	9.0603
187.500000	99.135	8.5315
190.000000	99.129	8.4762
192.500000	99.125	8.1592
195.000000	99.152	7.8527
197.500000	99.132	7.8458
200.000000	99.088	7.5154
203.000000	99.089	7.1981
206.000000	99.082	7.2053
209.000000	99.036	6.7964
212.000000	99.037	6.4728
214.000000	99.027	6.0933
218.000000	99.031	6.5416
220.000000	98.982	5.9175
224.000000	98.970	5.8680
227.000000	98.992	5.5773
230.000000	98.960	5.4479
233.000000	98.918	5.3434
236.000000	98.921	4.9395
240.000000	98.877	4.6378
243.000000	98.858	4.7195
247.000000	98.835	4.5736
250.000000	98.806	4.3660
254.000000	98.760	4.4041
258.000000	98.730	4.0431
262.000000	98.706	3.8903
265.000000	98.725	3.6045
269.000000	98.688	3.6450
272.000000	98.654	3.7131
276.000000	98.615	3.4668
280.000000	98.581	3.4994
285.000000	98.550	3.3190
290.000000	98.569	3.1636
295.000000	98.486	2.9626
300.000000	98.388	2.1395
304.000000	98.433	2.7495
307.000000	98.431	2.5886
311.000000	98.363	2.6904
315.000000	98.342	2.6974
320.000000	98.294	2.6260
325.000000	98.281	2.5074
330.000000	98.244	2.6450
335.000000	98.202	2.5477
340.000000	98.209	2.5781
345.000000	98.171	2.4807
350.000000	98.187	2.5425
355.000000	98.113	2.5405
360.000000	98.097	2.3971
365.000000	98.068	2.4670
370.000000	98.017	2.2490
375.000000	98.000	2.3668
382.000000	97.948	2.2864
387.000000	97.911	2.3203
395.000000	97.829	2.2852
400.000000	97.810	2.2841
406.000000	97.754	2.2084
412.000000	97.755	2.3209
418.000000	97.677	2.5880
425.000000	97.667	2.5936
431.000000	97.587	2.5284
437.000000	97.559	2.7770
444.000000	97.498	2.8934
450.000000	97.461	2.9806
455.000000	97.466	3.0512
462.000000	97.452	3.2275
468.000000	97.372	3.4348
475.000000	97.358	3.2622
482.000000	97.293	3.6512
487.000000	97.271	3.5573
494.000000	97.273	3.7206
500.000000	97.192	4.0305
508.000000	97.136	4.0172
515.000000	97.107	4.2527
522.000000	97.093	4.2669
530.000000	96.998	4.6641
538.000000	96.956	4.7590
545.000000	96.918	5.0267
552.000000	96.889	5.1586
560.000000	96.841	5.5800
570.000000	96.764	5.6296
580.000000	96.693	5.9733
590.000000	96.649	6.1508
600.000000	96.617	6.6151
608.000000	96.552	7.1103
615.000000	96.533	7.2227
622.000000	96.463	7.5418
630.000000	96.457	7.9030
640.000000	96.378	8.1661
650.000000	96.302	8.6516
660.000000	96.270	8.5767
670.000000	96.244	9.5259
680.000000	96.173	10.0513
690.000000	96.122	10.2476
700.000000	96.094	10.9382
710.000000	96.041	11.2369
720.000000	95.983	11.9297
730.000000	95.909	12.4554
740.000000	95.873	12.8925
750.000000	95.810	13.2072
762.000000	95.776	13.8739
775.000000	95.717	14.6931
788.000000	95.603	15.2547
800.000000	95.559	15.9586
812.000000	95.486	16.7897
825.000000	95.411	17.6509
838.000000	95.397	18.3615
850.000000	95.333	19.1917
862.000000	95.274	20.1113
875.000000	95.226	21.0719
885.000000	95.179	22.0784
900.000000	95.135	22.8850
912.000000	95.078	24.2120
925.000000	95.041	25.3294
938.000000	95.034	26.5074
950.000000	94.993	27.7709
962.000000	94.960	28.8911
975.000000	94.977	30.3438
988.000000	95.009	31.9216
1000.000000	95.000	33.0909
1015.000000	95.010	34.9649
1030.000000	95.110	36.5372
1044.000000	95.187	38.2001
1060.000000	95.345	40.1594
1075.000000	95.540	42.0244
1090.000000	95.754	43.3562
1106.000000	95.994	44.4601
1120.000000	96.199	45.2424
1138.000000	96.425	45.8126
1150.000000	96.596	46.0706
1172.000000	96.868	46.4744
1180.000000	96.957	46.3092
1206.000000	97.155	46.5294
1220.000000	97.276	46.7164
1241.000000	97.380	46.8630
1250.000000	97.438	46.8337
1265.000000	97.520	47.0437
1280.000000	97.572	47.1221
1315.000000	97.702	47.7737
1320.000000	97.719	47.7524
1340.000000	97.804	48.1845
1360.000000	97.858	48.5120
1380.000000	97.890	48.9386
1400.000000	97.989	49.5687
1430.000000	98.068	50.3701
1450.000000	98.162	50.9066
1475.000000	98.267	51.6764
1500.000000	98.387	52.5320
1525.000000	98.467	53.2931
1550.000000	98.550	53.9838
1575.000000	98.666	54.7425
1600.000000	98.784	55.4991
1625.000000	98.891	56.3829
1650.000000	99.032	57.0699
1675.000000	99.172	57.7692
1700.000000	99.322	58.5620
1725.000000	99.457	59.2846
1750.000000	99.595	59.9987
1775.000000	99.735	60.5881
1800.000000	99.881	61.3427
1825.000000	100.057	61.8297
1850.000000	100.231	62.4285
1875.000000	100.413	63.0202
1900.000000	100.605	63.4616
1925.000000	100.781	63.8748
1950.000000	100.967	64.4369
1975.000000	101.156	64.6948
2000.000000	101.345	64.9670
2030.000000	101.570	65.2783
2060.000000	101.826	65.4590
2090.000000	102.071	65.5747
2120.000000	102.321	65.6159
2140.000000	102.502	65.6377
2180.000000	102.847	65.2477
2200.000000	103.017	65.2270
2240.000000	103.334	64.6789
2270.000000	103.591	64.0484
2300.000000	103.822	63.3455
2330.000000	104.048	62.3880
2360.000000	104.267	61.4854
2400.000000	104.545	59.9854
2430.000000	104.734	58.8544
2470.000000	104.950	57.0529
2500.000000	105.098	55.7179
2540.000000	105.251	53.6262
2580.000000	105.359	51.6459
2620.000000	105.412	49.4401
2650.000000	105.427	48.0762
2690.000000	105.406	45.9370
2720.000000	105.360	44.4896
2760.000000	105.294	42.6138
2800.000000	105.168	40.8861
2850.000000	104.988	39.1163
2900.000000	104.763	37.6508
2950.000000	104.528	36.3430
3000.000000	104.278	35.3811
3040.000000	104.082	34.8536
3070.000000	103.922	34.6097
3110.000000	103.726	34.2889
3150.000000	103.537	34.3060
3200.000000	103.285	34.2809
3250.000000	103.041	34.6482
3300.000000	102.837	35.1599
3350.000000	102.649	35.7211
3400.000000	102.459	36.6026
3450.000000	102.301	37.3724
3500.000000	102.157	38.1962
3550.000000	102.016	39.2908
3600.000000	101.912	40.3929
3650.000000	101.808	41.6236
3700.000000	101.722	42.8646
3750.000000	101.662	44.0502
3820.000000	101.638	45.8255
3870.000000	101.622	47.0781
3950.000000	101.658	49.0800
4000.000000	101.670	50.4375
4060.000000	101.739	51.8261
4120.000000	101.852	53.2071
4180.000000	101.976	54.4381
4250.000000	102.165	56.0518
4310.000000	102.343	57.0628
4370.000000	102.564	58.1032
4440.000000	102.840	59.1085
4500.000000	103.131	59.6041
4550.000000	103.405	60.0112
4620.000000	103.790	60.1451
4680.000000	104.183	59.9302
4750.000000	104.666	58.8069
4820.000000	105.156	57.1402
4870.000000	105.484	55.4497
4940.000000	105.952	51.9798
5000.000000	106.251	48.2510
5080.000000	106.441	42.2758
5150.000000	106.347	36.9014
5220.000000	106.067	32.5690
5300.000000	105.842	29.0570
5380.000000	105.753	24.3117
5450.000000	105.515	18.8618
5520.000000	104.993	13.3196
5600.000000	104.121	8.0961
5700.000000	102.840	3.6642
5800.000000	101.518	1.3069
5900.000000	100.223	0.5374
6000.000000	99.079	1.2980
6080.000000	98.196	2.1644
6150.000000	97.478	3.5715
6220.000000	96.756	5.2198
6300.000000	95.977	7.2625
6400.000000	95.117	10.2642
6500.000000	94.320	13.5277
6600.000000	93.569	16.6048
6700.000000	92.926	20.8063
6800.000000	92.263	24.6395
6900.000000	91.651	29.0547
7000.000000	91.178	32.8847
7100.000000	90.646	37.2954
7200.000000	90.316	41.5550
7300.000000	89.890	45.8248
7400.000000	89.580	50.1417
7500.000000	89.186	55.3681
7620.000000	89.132	61.0244
7750.000000	88.988	65.3122
7880.000000	88.523	71.3214
8000.000000	88.452	78.0170
8120.000000	88.644	82.8632
8250.000000	88.995	88.3914
8380.000000	89.217	94.5890
8500.000000	89.622	99.0073
8620.000000	90.201	102.6263
8750.000000	91.172	106.4676
8850.000000	92.087	108.5077
9000.000000	93.852	107.8506
9120.000000	95.548	102.1068
9250.000000	97.394	86.1596
9380.000000	97.264	59.9675
9500.000000	94.966	41.7785
9620.000000	92.067	33.0330
9750.000000	89.210	30.3727
9880.000000	86.913	32.5848
10000.000000	84.800	35.2465
10150.000000	82.474	42.0919
10300.000000	80.663	49.1666
10440.000000	79.293	56.3362
10600.000000	77.040	64.4947
10750.000000	75.370	75.4454
10900.000000	73.511	89.2299
11060.000000	72.209	101.2134
11200.000000	71.342	116.6789
11380.000000	70.186	136.3141
11500.000000	69.986	147.9722
11720.000000	72.584	177.1334
11800.000000	72.684	-175.4901
12060.000000	75.866	-159.4389
12200.000000	77.263	-154.4980
12410.000000	78.226	-152.0420
12500.000000	79.197	-149.6820
12650.000000	80.044	-148.3375
12800.000000	81.141	-145.6276
13150.000000	83.861	-146.8060
13200.000000	84.212	-148.6652
13400.000000	86.461	-154.7807
13600.000000	88.263	-173.4964
13800.000000	87.551	162.4402
14000.000000	85.104	146.1177
14300.000000	81.241	140.4703
14500.000000	79.334	140.7789
14750.000000	76.908	146.4735
15000.000000	74.945	148.3834
15250.000000	73.631	154.0889
15500.000000	72.259	163.7699
15750.000000	71.143	175.2912
16000.000000	70.477	-179.8674
16250.000000	69.281	-170.3021
16500.000000	69.733	-164.1335
16750.000000	69.159	-156.5662
17000.000000	68.993	-150.6149
17250.000000	69.862	-154.2780
17500.000000	70.415	-143.3883
17750.000000	70.862	-141.8844
18000.000000	71.781	-144.7710
18250.000000	72.874	-159.5281
18500.000000	71.348	173.4419
18750.000000	64.581	173.6216
19000.000000	69.862	-159.6319
19250.000000	69.448	-176.1602
19500.000000	68.835	173.9421
19750.000000	67.204	157.2179
