* Measurement data measured by REW V5.31.1
* Source: EXCL: Micr√≥fono (Realtek(R) Audio), MICROPHONE (Volumen general), L, volume: 0,900. Timing signal peak level -11,7 dBFS, measurement signal peak level -10,6 dBFS
* Format: 512k Log Swept Sine, 1 sweep at -12,0 dBFS using an acoustic timing reference
* Dated: 6/10/2024 11:18:01 PM
* REW Settings:
*  C-weighting compensation: Off
*  Target level: 75.0 dB
* Note: Delay -0,0319 ms (-11 mm, -0,43 in) using estimated IR delay relative to Acoustic reference played from HEADPHONE R with no timing offset Clock adjustment: 19,1 ppm
* Measurement: V17 mic 1
* Smoothing: None
* Frequency Step: 1/48 octave
* Start Frequency: 20.000 Hz
*
* Freq(Hz)	SPL(dB)	Phase(degrees)
20.000000	92.384	80.0299
20.299999	92.494	79.2090
20.600000	92.603	78.3249
20.900000	92.706	77.3764
21.200001	92.795	76.3903
21.400000	92.846	75.7422
21.799999	92.930	74.5235
22.000000	92.966	73.9741
22.400000	93.040	73.0063
22.700001	93.103	72.3598
23.000000	93.173	71.7301
23.299999	93.249	71.0811
23.600000	93.324	70.4043
24.000000	93.418	69.4756
24.299999	93.481	68.7870
24.700001	93.558	67.9037
25.000000	93.613	67.2654
25.400000	93.683	66.4316
25.799999	93.745	65.6169
26.200001	93.799	64.8527
26.500000	93.837	64.3321
26.900000	93.893	63.7023
27.200001	93.942	63.2440
27.600000	94.016	62.5913
28.000000	94.088	61.8517
28.500000	94.161	60.8580
29.000000	94.215	59.9344
29.500000	94.268	59.1461
30.000000	94.337	58.3976
30.400000	94.399	57.7418
30.700001	94.443	57.2074
31.100000	94.491	56.4772
31.500000	94.528	55.7819
32.000000	94.565	55.0192
32.500000	94.605	54.3737
33.000000	94.655	53.7936
33.500000	94.716	53.2116
34.000000	94.781	52.5663
34.500000	94.835	51.8618
35.000000	94.874	51.1794
35.500000	94.909	50.5843
36.000000	94.955	50.0096
36.500000	95.005	49.3369
37.000000	95.035	48.5897
37.500000	95.042	47.9453
38.200001	95.067	47.3505
38.700001	95.120	46.9161
39.500000	95.197	45.9080
40.000000	95.217	45.3449
40.599998	95.254	44.8795
41.200001	95.320	44.3419
41.799999	95.369	43.6148
42.500000	95.380	42.9243
43.099998	95.404	42.5721
43.700001	95.452	42.1060
44.400002	95.481	41.3527
45.000000	95.478	40.8195
45.500000	95.486	40.4855
46.200001	95.522	39.9369
46.799999	95.550	39.3311
47.500000	95.570	38.6632
48.200001	95.598	38.0768
48.700001	95.622	37.6638
49.400002	95.651	37.1584
50.000000	95.685	36.8358
50.799999	95.743	36.3377
51.500000	95.757	35.8734
52.200001	95.759	35.7155
53.000000	95.813	35.4102
53.799999	95.796	34.5980
54.500000	95.730	34.3882
55.200001	95.774	34.1649
56.000000	95.780	32.8450
57.000000	95.712	32.5773
58.000000	96.055	30.3564
59.000000	95.611	26.2874
60.000000	95.284	30.1894
60.799999	95.834	30.9331
61.500000	95.985	29.0307
62.200001	95.902	28.6829
63.000000	95.971	29.0196
64.000000	95.967	28.7228
65.000000	96.023	29.2370
66.000000	96.067	28.2975
67.000000	95.989	28.1183
68.000000	96.055	27.5085
69.000000	95.996	26.6676
70.000000	96.012	26.6417
71.000000	96.091	26.0911
72.000000	96.099	25.6049
73.000000	96.122	25.4203
74.000000	96.139	25.0302
75.000000	96.118	24.7716
76.199997	96.121	24.4807
77.500000	96.129	24.0760
78.800003	96.142	23.4781
80.000000	96.142	23.2542
81.199997	96.187	22.7898
82.500000	96.143	22.4474
83.800003	96.177	22.3674
85.000000	96.186	21.7879
86.199997	96.155	21.2692
87.500000	96.124	21.0355
88.500000	96.148	20.7844
90.000000	96.142	20.3112
91.199997	96.149	20.0696
92.500000	96.151	19.8866
93.800003	96.168	19.5378
95.000000	96.147	19.3352
96.199997	96.161	19.1295
97.500000	96.163	18.8442
98.800003	96.158	18.3979
100.000000	96.129	18.3519
101.500000	96.164	18.0216
103.000000	96.150	17.7631
104.400002	96.146	17.4156
106.000000	96.131	17.2854
107.500000	96.145	16.9200
109.000000	96.123	16.6835
110.599998	96.126	16.4334
112.000000	96.137	16.3940
113.800003	96.162	16.0364
115.000000	96.141	15.7607
117.199997	96.088	15.5615
118.000000	96.083	15.6238
120.599998	96.086	15.1697
122.000000	96.121	14.9207
124.099998	96.082	14.6326
125.000000	96.071	14.5928
126.500000	96.066	14.5196
128.000000	96.081	14.4023
131.500000	96.067	13.9496
132.000000	96.061	13.8890
134.000000	96.052	13.7194
136.000000	96.049	13.5920
138.000000	96.029	13.3899
140.000000	96.005	13.0930
143.000000	95.994	13.0804
145.000000	95.990	12.7126
147.500000	95.975	12.6160
150.000000	95.978	12.4253
152.500000	95.941	12.3492
155.000000	95.909	12.3390
157.500000	95.923	12.1240
160.000000	95.919	11.9382
162.500000	95.894	11.8697
165.000000	95.923	11.9449
167.500000	95.847	11.7220
170.000000	95.834	11.7570
172.500000	95.834	11.1828
175.000000	95.816	11.5498
177.500000	95.817	11.2675
180.000000	95.826	11.5596
182.500000	95.811	11.3991
185.000000	95.775	11.3459
187.500000	95.772	11.1515
190.000000	95.767	11.0447
192.500000	95.738	10.8889
195.000000	95.715	11.1865
197.500000	95.705	11.0115
200.000000	95.638	10.9368
203.000000	95.681	10.9036
206.000000	95.655	10.7500
209.000000	95.630	11.0602
212.000000	95.638	10.9843
214.000000	95.625	11.0267
218.000000	95.669	11.1659
220.000000	95.571	10.8850
224.000000	95.586	10.8036
227.000000	95.565	11.1999
230.000000	95.540	11.2210
233.000000	95.578	11.0880
236.000000	95.532	11.2115
240.000000	95.479	11.2621
243.000000	95.507	11.2321
247.000000	95.494	11.4742
250.000000	95.504	11.4181
254.000000	95.477	11.6370
258.000000	95.482	11.7789
262.000000	95.428	11.7151
265.000000	95.454	12.0192
269.000000	95.457	12.1445
272.000000	95.449	12.1084
276.000000	95.429	12.1632
280.000000	95.403	12.4257
285.000000	95.398	12.4465
290.000000	95.434	12.6470
295.000000	95.436	12.5470
300.000000	95.446	12.9823
304.000000	95.403	12.8152
307.000000	95.419	12.9319
311.000000	95.389	12.6515
315.000000	95.392	13.0012
320.000000	95.367	13.0854
325.000000	95.358	13.2093
330.000000	95.382	13.5194
335.000000	95.356	13.5258
340.000000	95.338	13.7903
345.000000	95.340	13.9824
350.000000	95.304	13.8993
355.000000	95.303	14.1847
360.000000	95.325	14.1996
365.000000	95.295	14.3912
370.000000	95.277	14.5372
375.000000	95.255	14.8454
382.000000	95.251	14.9250
387.000000	95.208	15.0789
395.000000	95.175	15.6995
400.000000	95.114	16.5361
406.000000	95.194	16.4408
412.000000	95.206	16.6561
418.000000	95.237	16.6462
425.000000	95.224	17.0024
431.000000	95.210	17.0109
437.000000	95.231	17.2132
444.000000	95.208	17.3163
450.000000	95.211	17.4913
455.000000	95.197	17.9470
462.000000	95.177	18.0389
468.000000	95.167	18.3809
475.000000	95.165	18.4468
482.000000	95.161	18.7810
487.000000	95.127	18.8749
494.000000	95.118	19.4052
500.000000	95.138	19.3972
508.000000	95.082	19.7423
515.000000	95.058	20.2247
522.000000	95.077	20.3458
530.000000	95.055	20.8054
538.000000	94.986	21.0253
545.000000	94.989	21.4559
552.000000	95.025	21.7874
560.000000	94.943	22.2494
570.000000	94.932	22.8044
580.000000	94.931	23.3952
590.000000	94.920	23.7933
600.000000	94.877	25.0944
608.000000	94.872	25.4368
615.000000	94.891	25.7784
622.000000	94.841	26.4119
630.000000	94.883	26.7262
640.000000	94.821	27.3722
650.000000	94.850	28.4338
660.000000	94.838	28.8754
670.000000	94.885	29.9131
680.000000	94.838	30.7207
690.000000	94.876	31.4126
700.000000	94.930	32.4088
710.000000	94.943	33.2669
720.000000	94.977	34.0394
730.000000	95.010	34.7929
740.000000	95.048	35.7635
750.000000	95.119	36.9106
762.000000	95.200	37.7079
775.000000	95.315	38.7752
788.000000	95.364	39.6946
800.000000	95.497	40.3029
812.000000	95.564	41.7116
825.000000	95.642	42.4303
838.000000	95.756	43.2894
850.000000	95.841	43.9444
862.000000	95.964	44.8882
875.000000	96.063	45.5209
885.000000	96.150	46.0929
900.000000	96.299	46.8920
912.000000	96.349	47.5333
925.000000	96.484	48.4487
938.000000	96.607	49.3297
950.000000	96.726	49.8529
962.000000	96.818	50.6281
975.000000	96.974	51.3397
988.000000	97.096	52.1790
1000.000000	97.271	52.7799
1015.000000	97.410	53.6992
1030.000000	97.618	54.6949
1044.000000	97.813	55.4568
1060.000000	98.066	56.2209
1075.000000	98.368	56.6391
1090.000000	98.618	56.8807
1106.000000	98.941	57.0172
1120.000000	99.194	56.8098
1138.000000	99.514	56.4484
1150.000000	99.691	55.9112
1172.000000	99.962	54.9892
1180.000000	100.032	54.6694
1206.000000	100.290	53.5919
1220.000000	100.399	52.9955
1241.000000	100.559	52.1265
1250.000000	100.603	51.8380
1265.000000	100.689	51.3689
1280.000000	100.748	51.0057
1315.000000	100.888	50.0486
1320.000000	100.912	49.9393
1340.000000	100.999	49.6649
1360.000000	101.048	49.3506
1380.000000	101.114	49.1031
1400.000000	101.210	48.8018
1430.000000	101.274	48.7369
1450.000000	101.340	48.6161
1475.000000	101.425	48.6007
1500.000000	101.502	48.5298
1525.000000	101.610	48.6282
1550.000000	101.690	48.6606
1575.000000	101.790	48.8043
1600.000000	101.894	48.7162
1625.000000	101.990	48.9815
1650.000000	102.071	49.0904
1675.000000	102.207	49.2864
1700.000000	102.322	49.3159
1725.000000	102.418	49.5692
1750.000000	102.554	49.7013
1775.000000	102.680	49.9062
1800.000000	102.806	49.9756
1825.000000	102.968	50.0034
1850.000000	103.112	50.1638
1875.000000	103.261	50.2677
1900.000000	103.417	50.3308
1925.000000	103.559	50.3812
1950.000000	103.727	50.3547
1975.000000	103.894	50.2500
2000.000000	104.054	50.3075
2030.000000	104.249	50.1124
2060.000000	104.483	49.8594
2090.000000	104.697	49.5930
2120.000000	104.913	49.3193
2140.000000	105.072	49.0522
2180.000000	105.367	48.3788
2200.000000	105.534	47.9431
2240.000000	105.827	47.0331
2270.000000	106.049	46.2624
2300.000000	106.274	45.2750
2330.000000	106.489	44.2502
2360.000000	106.708	43.1469
2400.000000	106.985	41.4425
2430.000000	107.173	40.0416
2470.000000	107.399	37.8941
2500.000000	107.570	36.2719
2540.000000	107.736	33.8593
2580.000000	107.873	31.3823
2620.000000	107.957	28.7878
2650.000000	107.997	26.7816
2690.000000	108.010	24.1769
2720.000000	107.993	22.2003
2760.000000	107.925	19.6763
2800.000000	107.812	17.3831
2850.000000	107.619	14.5645
2900.000000	107.375	12.1056
2950.000000	107.112	9.9869
3000.000000	106.810	8.2397
3040.000000	106.572	7.0605
3070.000000	106.402	6.3060
3110.000000	106.147	5.4579
3150.000000	105.886	4.7996
3200.000000	105.578	4.3119
3250.000000	105.287	3.9281
3300.000000	104.997	3.8475
3350.000000	104.729	4.0159
3400.000000	104.472	4.3705
3450.000000	104.246	4.7546
3500.000000	104.025	5.1368
3550.000000	103.825	5.8831
3600.000000	103.665	6.5765
3650.000000	103.486	7.5323
3700.000000	103.363	8.3961
3750.000000	103.241	9.3656
3820.000000	103.121	10.8539
3870.000000	103.054	11.8815
3950.000000	102.992	13.8387
4000.000000	102.999	14.9485
4060.000000	103.014	16.3926
4120.000000	103.066	17.7496
4180.000000	103.173	18.9903
4250.000000	103.324	20.3325
4310.000000	103.474	21.4191
4370.000000	103.681	22.3678
4440.000000	103.937	23.3994
4500.000000	104.216	24.0807
4550.000000	104.463	24.4326
4620.000000	104.858	24.7394
4680.000000	105.252	24.5876
4750.000000	105.754	23.9987
4820.000000	106.306	22.5782
4870.000000	106.708	21.1160
4940.000000	107.271	18.0243
5000.000000	107.707	14.3497
5080.000000	108.102	8.0759
5150.000000	108.178	1.8013
5220.000000	107.966	-3.9457
5300.000000	107.607	-8.6547
5380.000000	107.440	-12.8998
5450.000000	107.281	-17.8736
5520.000000	106.882	-23.6196
5600.000000	106.134	-29.3497
5700.000000	104.924	-34.6215
5800.000000	103.666	-37.4263
5900.000000	102.447	-38.5485
6000.000000	101.310	-38.2992
6080.000000	100.481	-37.4644
6150.000000	99.793	-36.4218
6220.000000	99.173	-34.6983
6300.000000	98.474	-32.9182
6400.000000	97.716	-30.4591
6500.000000	97.041	-27.4977
6600.000000	96.448	-24.5941
6700.000000	95.934	-21.5408
6800.000000	95.448	-18.1599
6900.000000	94.980	-14.8795
7000.000000	94.600	-11.4457
7100.000000	94.249	-8.3475
7200.000000	93.951	-4.4180
7300.000000	93.708	-1.0469
7400.000000	93.402	2.7351
7500.000000	93.274	6.5834
7620.000000	93.367	11.8308
7750.000000	93.249	15.3681
7880.000000	93.216	19.3746
8000.000000	93.132	23.9470
8120.000000	93.495	27.4342
8250.000000	93.813	31.9069
8380.000000	94.153	34.6421
8500.000000	94.424	38.7888
8620.000000	94.971	41.8217
8750.000000	95.637	44.9486
8850.000000	96.266	46.7668
9000.000000	97.446	48.2775
9120.000000	98.638	47.8717
9250.000000	100.121	44.9053
9380.000000	101.813	37.7305
9500.000000	103.146	24.9250
9620.000000	103.607	6.9741
9750.000000	102.558	-11.8468
9880.000000	100.530	-23.9407
10000.000000	98.615	-29.5358
10150.000000	96.376	-32.1405
10300.000000	94.524	-31.3643
10440.000000	93.089	-29.4503
10600.000000	91.726	-25.8993
10750.000000	90.503	-22.1519
10900.000000	89.518	-18.0820
11060.000000	88.684	-13.1594
11200.000000	87.846	-9.6779
11380.000000	87.027	-4.1321
11500.000000	86.610	0.5203
11720.000000	86.254	7.3615
11800.000000	86.110	10.1909
12060.000000	85.704	17.4474
12200.000000	85.602	22.0473
12410.000000	85.911	28.5675
12500.000000	85.896	30.2763
12650.000000	86.386	34.3474
12800.000000	86.801	37.5289
13150.000000	88.785	40.1580
13200.000000	89.321	40.2978
13400.000000	90.895	35.2677
13600.000000	92.648	20.4785
13800.000000	92.914	-4.1031
14000.000000	90.640	-25.1006
14300.000000	86.295	-37.0133
14500.000000	83.868	-37.0953
14750.000000	81.113	-33.7448
15000.000000	79.066	-26.8893
15250.000000	77.397	-22.9698
15500.000000	75.665	-18.0283
15750.000000	74.981	-7.7357
16000.000000	73.461	-3.3794
16250.000000	72.640	7.0946
16500.000000	72.149	18.8898
16750.000000	72.404	18.2178
17000.000000	72.139	28.9143
17250.000000	71.923	32.1836
17500.000000	73.011	36.7339
17750.000000	73.993	34.7098
18000.000000	74.725	38.0131
18250.000000	76.940	31.1193
18500.000000	77.125	7.6993
18750.000000	71.522	-0.3054
19000.000000	75.887	40.4038
19250.000000	79.595	5.2220
19500.000000	78.162	-16.2700
19750.000000	76.752	-32.9576
