* Measurement data measured by REW V5.31.1
* Source: EXCL: Micr√≥fono (Realtek(R) Audio), MICROPHONE (Volumen general), L, volume: 0,900. Timing signal peak level -17,7 dBFS, measurement signal peak level -15,8 dBFS
* Format: 512k Log Swept Sine, 1 sweep at -12,0 dBFS using an acoustic timing reference
* Dated: 12/09/2024 12:46:17 AM
* REW Settings:
*  C-weighting compensation: Off
*  Target level: 75.0 dB
* Note: Delay -0,0328 ms (-11 mm, -0,44 in) using estimated IR delay relative to Acoustic reference played from HEADPHONE R with no timing offset Clock adjustment: 19,7 ppm
* Measurement: 712 gordo mic 1
* Smoothing: None
* Frequency Step: 1/48 octave
* Start Frequency: 20.000 Hz
*
* Freq(Hz)	SPL(dB)	Phase(degrees)
20.000000	89.164	93.4980
20.299999	89.255	91.8051
20.600000	89.271	90.2954
20.900000	89.242	89.2553
21.200001	89.226	88.8110
21.400000	89.257	88.7307
21.799999	89.431	88.6311
22.000000	89.565	88.3863
22.400000	89.862	87.1947
22.700001	90.047	85.7860
23.000000	90.167	84.2222
23.299999	90.227	82.7972
23.600000	90.254	81.6726
24.000000	90.294	80.6773
24.299999	90.357	80.1391
24.700001	90.485	79.3908
25.000000	90.590	78.6821
25.400000	90.709	77.5851
25.799999	90.790	76.5384
26.200001	90.851	75.7313
26.500000	90.905	75.2813
26.900000	91.004	74.7587
27.200001	91.096	74.3013
27.600000	91.223	73.5031
28.000000	91.326	72.5325
28.500000	91.401	71.3654
29.000000	91.455	70.5664
29.500000	91.558	70.0303
30.000000	91.719	69.2208
30.400000	91.836	68.1669
30.700001	91.886	67.2399
31.100000	91.894	66.1568
31.500000	91.875	65.5252
32.000000	91.916	65.2838
32.500000	92.066	64.8577
33.000000	92.218	63.6537
33.500000	92.253	62.1324
34.000000	92.193	61.2305
34.500000	92.185	61.1192
35.000000	92.302	60.9489
35.500000	92.441	59.9753
36.000000	92.469	58.5719
36.500000	92.387	57.6402
37.000000	92.318	57.5594
37.500000	92.359	57.7926
38.200001	92.528	57.4405
38.700001	92.626	56.7238
39.500000	92.727	55.5599
40.000000	92.781	54.8317
40.599998	92.820	53.9185
41.200001	92.828	53.2159
41.799999	92.849	52.8335
42.500000	92.933	52.4000
43.099998	93.012	51.7181
43.700001	93.044	50.9472
44.400002	93.045	50.4225
45.000000	93.089	50.2701
45.500000	93.168	49.9831
46.200001	93.263	49.1052
46.799999	93.281	48.3105
47.500000	93.295	47.7790
48.200001	93.365	47.1837
48.700001	93.406	46.4567
49.400002	93.381	45.4119
50.000000	93.322	45.0023
50.799999	93.319	45.0465
51.500000	93.410	44.9532
52.200001	93.522	44.3839
53.000000	93.588	43.3835
53.799999	93.583	42.6693
54.500000	93.593	42.3995
55.200001	93.624	42.0645
56.000000	93.627	41.7132
57.000000	93.683	41.5139
58.000000	93.677	40.1655
59.000000	93.402	40.2867
60.000000	93.566	41.8823
60.799999	93.807	40.5050
61.500000	93.762	38.8449
62.200001	93.666	38.3358
63.000000	93.700	37.9365
64.000000	93.694	36.7943
65.000000	93.670	36.7083
66.000000	93.798	36.5148
67.000000	93.866	35.7840
68.000000	93.931	35.5370
69.000000	94.034	34.2114
70.000000	93.779	32.9247
71.000000	93.646	34.7304
72.000000	93.914	34.9614
73.000000	93.988	34.0261
74.000000	94.065	33.4785
75.000000	94.069	32.7435
76.199997	94.114	32.5192
77.500000	94.101	31.9543
78.800003	94.137	31.7552
80.000000	94.135	31.3604
81.199997	94.154	30.9435
82.500000	94.205	30.7371
83.800003	94.212	29.6636
85.000000	94.156	30.0128
86.199997	94.226	29.6973
87.500000	94.204	29.7376
88.500000	94.292	29.2599
90.000000	94.181	28.4326
91.199997	94.244	28.5548
92.500000	94.262	27.8432
93.800003	94.300	27.9918
95.000000	94.361	27.4858
96.199997	94.338	27.5481
97.500000	94.416	27.0572
98.800003	94.306	26.8259
100.000000	94.388	26.8560
101.500000	94.361	26.2433
103.000000	94.398	25.9344
104.400002	94.418	26.0474
106.000000	94.415	25.4404
107.500000	94.457	25.7733
109.000000	94.439	25.0138
110.599998	94.449	24.7646
112.000000	94.400	24.3928
113.800003	94.490	24.5734
115.000000	94.469	23.8046
117.199997	94.458	23.5801
118.000000	94.395	23.7466
120.599998	94.395	23.5005
122.000000	94.549	23.3804
124.099998	94.517	23.0152
125.000000	94.545	22.9116
126.500000	94.541	22.5782
128.000000	94.553	22.5505
131.500000	94.568	22.0955
132.000000	94.526	21.9932
134.000000	94.574	21.9613
136.000000	94.592	21.7004
138.000000	94.577	21.9282
140.000000	94.513	21.3925
143.000000	94.562	20.6037
145.000000	94.613	20.6115
147.500000	94.608	20.5509
150.000000	94.562	20.1559
152.500000	94.582	20.3157
155.000000	94.683	20.0946
157.500000	94.825	20.0504
160.000000	94.648	22.2642
162.500000	94.370	18.7259
165.000000	94.527	18.4860
167.500000	94.936	18.6037
170.000000	94.457	18.0618
172.500000	94.671	20.7895
175.000000	94.705	21.2362
177.500000	94.602	17.8758
180.000000	94.795	17.6825
182.500000	94.510	20.7588
185.000000	94.782	19.3051
187.500000	94.713	20.1905
190.000000	94.706	18.4408
192.500000	94.722	18.7651
195.000000	94.712	18.6682
197.500000	94.727	18.3269
200.000000	94.759	18.5437
203.000000	94.809	18.1374
206.000000	94.716	17.7913
209.000000	94.858	18.0763
212.000000	94.811	17.8864
214.000000	95.257	20.4843
218.000000	94.764	17.8441
220.000000	94.837	17.4623
224.000000	94.790	17.2122
227.000000	94.931	17.5038
230.000000	94.849	17.4586
233.000000	94.810	17.5496
236.000000	94.858	17.4574
240.000000	94.861	17.3330
243.000000	94.908	17.4922
247.000000	94.936	17.1504
250.000000	94.913	17.2873
254.000000	94.899	17.1524
258.000000	94.931	16.4891
262.000000	94.896	16.1402
265.000000	94.970	16.8502
269.000000	94.857	17.1441
272.000000	94.924	16.7027
276.000000	94.926	16.9396
280.000000	94.908	17.3437
285.000000	94.755	16.1306
290.000000	94.938	16.8854
295.000000	94.899	16.7809
300.000000	95.009	16.5138
304.000000	95.007	16.8000
307.000000	95.014	16.4178
311.000000	94.962	16.8462
315.000000	95.002	16.2101
320.000000	94.968	16.5429
325.000000	95.031	16.0947
330.000000	94.988	16.2417
335.000000	94.981	16.1430
340.000000	95.031	16.5640
345.000000	95.002	16.7716
350.000000	94.983	16.6186
355.000000	95.013	16.6428
360.000000	95.076	16.5855
365.000000	95.062	16.9475
370.000000	95.048	16.9253
375.000000	95.075	16.9006
382.000000	95.084	17.3776
387.000000	95.101	17.0944
395.000000	95.140	16.9149
400.000000	95.164	17.1229
406.000000	95.202	17.2550
412.000000	95.262	17.0200
418.000000	95.178	17.2467
425.000000	95.207	17.1154
431.000000	95.208	17.0369
437.000000	95.220	17.2177
444.000000	95.238	17.2999
450.000000	95.232	17.1464
455.000000	95.226	17.0220
462.000000	95.246	17.3995
468.000000	95.285	17.4297
475.000000	95.239	16.8342
482.000000	95.239	17.2910
487.000000	95.262	17.3121
494.000000	95.292	17.1752
500.000000	95.284	17.4769
508.000000	95.263	17.4816
515.000000	95.292	17.7081
522.000000	95.288	17.5737
530.000000	95.289	17.6827
538.000000	95.303	17.4922
545.000000	95.310	17.7659
552.000000	95.295	17.8676
560.000000	95.319	17.9746
570.000000	95.294	17.9422
580.000000	95.300	18.1591
590.000000	95.323	18.1914
600.000000	95.326	18.4080
608.000000	95.287	18.5430
615.000000	95.316	18.3833
622.000000	95.330	18.4879
630.000000	95.280	18.5122
640.000000	95.296	18.5209
650.000000	95.314	18.9599
660.000000	95.323	18.8713
670.000000	95.279	19.0665
680.000000	95.286	19.1244
690.000000	95.241	19.8946
700.000000	95.258	19.8505
710.000000	95.204	19.7205
720.000000	95.236	20.1241
730.000000	95.203	20.0799
740.000000	95.186	20.4526
750.000000	95.195	20.4326
762.000000	95.160	20.8101
775.000000	95.162	21.2102
788.000000	95.147	21.7135
800.000000	95.110	21.9248
812.000000	95.058	22.1752
825.000000	95.057	22.7070
838.000000	95.034	23.1789
850.000000	95.016	23.4021
862.000000	95.012	24.2709
875.000000	94.994	24.9118
885.000000	94.955	25.2483
900.000000	94.891	26.2224
912.000000	94.919	26.7262
925.000000	94.869	27.5414
938.000000	94.931	28.6755
950.000000	94.919	29.2742
962.000000	94.967	30.2533
975.000000	94.929	31.2145
988.000000	95.000	32.0393
1000.000000	95.003	32.9377
1015.000000	95.097	34.2287
1030.000000	95.209	35.8037
1044.000000	95.291	37.0550
1060.000000	95.459	38.4878
1075.000000	95.641	39.7350
1090.000000	95.869	40.3993
1106.000000	96.111	41.0389
1120.000000	96.401	41.2051
1138.000000	96.613	41.5025
1150.000000	96.807	41.5327
1172.000000	97.051	41.4366
1180.000000	97.126	40.9836
1206.000000	97.333	40.5770
1220.000000	97.429	40.2300
1241.000000	97.551	39.8709
1250.000000	97.647	39.5501
1265.000000	97.698	39.5617
1280.000000	97.788	39.3920
1315.000000	97.889	39.0657
1320.000000	97.931	38.9978
1340.000000	98.007	38.9301
1360.000000	98.054	39.0198
1380.000000	98.137	38.9095
1400.000000	98.207	39.0373
1430.000000	98.312	39.2678
1450.000000	98.368	39.5852
1475.000000	98.466	39.4709
1500.000000	98.571	39.8220
1525.000000	98.645	39.9318
1550.000000	98.763	40.1653
1575.000000	98.869	40.5620
1600.000000	98.970	40.7713
1625.000000	99.064	41.0164
1650.000000	99.215	41.3361
1675.000000	99.337	41.6473
1700.000000	99.480	41.7134
1725.000000	99.592	41.9630
1750.000000	99.746	42.2413
1775.000000	99.902	42.3278
1800.000000	100.046	42.6404
1825.000000	100.198	42.7390
1850.000000	100.352	42.7641
1875.000000	100.516	42.9431
1900.000000	100.689	42.8520
1925.000000	100.865	42.9535
1950.000000	101.007	42.8690
1975.000000	101.199	42.7115
2000.000000	101.386	42.7070
2030.000000	101.627	42.4277
2060.000000	101.838	42.2005
2090.000000	102.045	41.8126
2120.000000	102.301	41.3163
2140.000000	102.456	40.9607
2180.000000	102.771	40.1191
2200.000000	102.922	39.6058
2240.000000	103.242	38.3794
2270.000000	103.468	37.4944
2300.000000	103.698	36.3684
2330.000000	103.909	35.1082
2360.000000	104.096	33.8291
2400.000000	104.385	31.8043
2430.000000	104.528	30.0890
2470.000000	104.741	27.8464
2500.000000	104.886	26.0446
2540.000000	105.018	23.5212
2580.000000	105.119	20.8166
2620.000000	105.179	18.1943
2650.000000	105.185	16.1459
2690.000000	105.170	13.5300
2720.000000	105.113	11.6454
2760.000000	105.041	9.1813
2800.000000	104.907	6.8973
2850.000000	104.702	4.0216
2900.000000	104.466	1.8138
2950.000000	104.200	-0.2474
3000.000000	103.936	-2.0013
3040.000000	103.680	-3.2003
3070.000000	103.507	-3.9757
3110.000000	103.267	-4.7635
3150.000000	103.044	-5.3961
3200.000000	102.760	-6.1424
3250.000000	102.493	-6.4588
3300.000000	102.230	-6.6804
3350.000000	101.971	-6.8183
3400.000000	101.758	-6.6890
3450.000000	101.538	-6.4186
3500.000000	101.353	-6.0601
3550.000000	101.177	-5.8429
3600.000000	101.015	-5.1124
3650.000000	100.843	-4.5637
3700.000000	100.722	-3.8883
3750.000000	100.642	-3.3532
3820.000000	100.503	-2.2448
3870.000000	100.448	-1.4266
3950.000000	100.388	-0.1927
4000.000000	100.351	0.7111
4060.000000	100.389	1.6679
4120.000000	100.419	2.4018
4180.000000	100.529	3.2898
4250.000000	100.626	4.4400
4310.000000	100.777	5.0600
4370.000000	100.956	5.7992
4440.000000	101.204	6.2048
4500.000000	101.465	6.4756
4550.000000	101.707	6.4147
4620.000000	102.077	6.1961
4680.000000	102.443	5.4594
4750.000000	102.889	4.0413
4820.000000	103.365	1.8756
4870.000000	103.696	-0.2026
4940.000000	104.137	-4.0768
5000.000000	104.431	-8.4673
5080.000000	104.589	-15.2030
5150.000000	104.458	-21.1631
5220.000000	104.148	-26.2181
5300.000000	103.821	-30.3490
5380.000000	103.689	-35.2480
5450.000000	103.400	-40.8363
5520.000000	102.863	-46.7289
5600.000000	101.963	-52.1384
5700.000000	100.669	-56.8754
5800.000000	99.378	-59.4603
5900.000000	98.141	-60.5925
6000.000000	96.994	-60.1778
6080.000000	96.159	-59.6373
6150.000000	95.478	-58.8111
6220.000000	94.788	-57.4335
6300.000000	94.099	-55.9931
6400.000000	93.291	-53.5664
6500.000000	92.552	-50.7940
6600.000000	91.902	-48.4257
6700.000000	91.243	-45.1811
6800.000000	90.652	-41.6441
6900.000000	90.277	-38.0053
7000.000000	89.714	-34.7090
7100.000000	89.217	-30.9125
7200.000000	88.965	-27.9633
7300.000000	88.581	-23.9481
7400.000000	88.347	-19.9575
7500.000000	88.058	-15.3882
7620.000000	88.262	-11.6110
7750.000000	88.069	-7.7376
7880.000000	87.979	-2.5998
8000.000000	88.178	1.8973
8120.000000	88.412	4.7696
8250.000000	88.877	8.3809
8380.000000	89.281	10.7852
8500.000000	89.791	13.0400
8620.000000	90.629	13.0440
8750.000000	91.482	12.4648
8850.000000	92.199	9.7248
9000.000000	93.186	1.8538
9120.000000	93.551	-7.4972
9250.000000	93.234	-19.8223
9380.000000	92.088	-29.6568
9500.000000	90.744	-36.1636
9620.000000	89.235	-39.0104
9750.000000	87.590	-40.6440
9880.000000	86.373	-37.2352
10000.000000	84.832	-37.1915
10150.000000	83.608	-32.0359
10300.000000	82.864	-28.2090
10440.000000	82.161	-22.6116
10600.000000	81.098	-17.4820
10750.000000	80.315	-12.8089
10900.000000	80.123	-9.6529
11060.000000	79.435	-1.0263
11200.000000	79.288	1.1117
11380.000000	78.638	7.3824
11500.000000	78.883	10.7549
11720.000000	78.420	18.7912
11800.000000	78.554	22.4271
12060.000000	79.202	30.4585
12200.000000	79.117	32.4756
12410.000000	79.485	40.1431
12500.000000	79.418	39.2582
12650.000000	80.370	46.0499
12800.000000	80.936	44.9957
13150.000000	83.350	43.8448
13200.000000	83.575	43.9320
13400.000000	85.237	31.2821
13600.000000	85.767	12.4570
13800.000000	84.700	-5.8113
14000.000000	82.546	-17.0862
14300.000000	79.121	-23.0126
14500.000000	76.921	-23.0226
14750.000000	75.243	-18.4329
15000.000000	73.441	-13.9723
15250.000000	72.070	-10.2828
15500.000000	70.273	-4.8328
15750.000000	70.838	-4.5227
16000.000000	68.305	8.3859
16250.000000	69.852	16.8269
16500.000000	69.031	38.4492
16750.000000	69.332	31.7534
17000.000000	69.913	37.9415
17250.000000	71.052	39.2153
17500.000000	71.536	44.3087
17750.000000	73.576	27.5553
18000.000000	74.249	19.7231
18250.000000	74.047	10.6702
18500.000000	74.342	-10.7683
18750.000000	70.016	-24.0866
19000.000000	73.781	0.8750
19250.000000	72.953	-21.3458
19500.000000	72.414	-38.9801
19750.000000	72.305	-46.1993
