* Measurement data measured by REW V5.31.1
* Source: EXCL: Micr√≥fono (Realtek(R) Audio), MICROPHONE (Volumen general), L, volume: 0,900. Timing signal peak level -16,6 dBFS, measurement signal peak level -14,6 dBFS
* Format: 512k Log Swept Sine, 1 sweep at -12,0 dBFS using an acoustic timing reference
* Dated: 12/09/2024 12:44:05 AM
* REW Settings:
*  C-weighting compensation: Off
*  Target level: 75.0 dB
* Note: Delay -0,0312 ms (-11 mm, -0,42 in) using estimated IR delay relative to Acoustic reference played from HEADPHONE R with no timing offset Clock adjustment: 19,7 ppm
* Measurement: 712 gordo mic 2
* Smoothing: None
* Frequency Step: 1/48 octave
* Start Frequency: 20.000 Hz
*
* Freq(Hz)	SPL(dB)	Phase(degrees)
20.000000	93.452	80.9516
20.299999	93.558	79.9893
20.600000	93.653	79.0543
20.900000	93.742	78.1822
21.200001	93.834	77.3721
21.400000	93.898	76.8417
21.799999	94.031	75.7561
22.000000	94.096	75.1857
22.400000	94.214	73.9972
22.700001	94.287	73.1160
23.000000	94.348	72.3026
23.299999	94.404	71.5806
23.600000	94.463	70.9335
24.000000	94.552	70.1229
24.299999	94.623	69.4966
24.700001	94.714	68.6078
25.000000	94.773	67.9257
25.400000	94.837	67.0576
25.799999	94.894	66.2848
26.200001	94.953	65.5880
26.500000	95.002	65.0755
26.900000	95.069	64.3649
27.200001	95.116	63.8072
27.600000	95.172	63.0546
28.000000	95.220	62.3276
28.500000	95.280	61.4664
29.000000	95.342	60.6176
29.500000	95.405	59.7591
30.000000	95.469	58.9301
30.400000	95.527	58.3051
30.700001	95.580	57.8358
31.100000	95.665	57.1320
31.500000	95.754	56.2654
32.000000	95.837	54.9578
32.500000	95.859	53.6515
33.000000	95.836	52.7369
33.500000	95.829	52.3408
34.000000	95.890	52.1325
34.500000	95.995	51.6489
35.000000	96.074	50.8320
35.500000	96.091	50.0577
36.000000	96.084	49.6570
36.500000	96.114	49.5165
37.000000	96.186	49.2181
37.500000	96.250	48.5748
38.200001	96.258	47.5876
38.700001	96.246	47.2223
39.500000	96.335	46.7596
40.000000	96.422	45.9712
40.599998	96.451	44.6647
41.200001	96.392	43.8721
41.799999	96.388	43.9186
42.500000	96.558	43.8643
43.099998	96.710	42.9352
43.700001	96.745	41.8639
44.400002	96.717	41.3217
45.000000	96.733	41.1613
45.500000	96.750	40.8734
46.200001	96.728	40.4347
46.799999	96.707	40.2624
47.500000	96.737	39.8556
48.200001	96.754	38.8436
48.700001	96.719	38.0684
49.400002	96.681	37.4719
50.000000	96.749	37.0089
50.799999	96.848	35.6419
51.500000	96.832	35.0552
52.200001	96.962	35.4117
53.000000	97.179	34.4521
53.799999	97.042	34.1681
54.500000	97.107	35.7918
55.200001	97.271	34.9356
56.000000	96.784	34.2227
57.000000	96.920	37.3189
58.000000	96.258	27.2500
59.000000	93.036	42.0606
60.000000	96.900	52.5685
60.799999	97.774	36.7492
61.500000	96.782	29.7362
62.200001	96.455	32.0176
63.000000	97.032	30.4660
64.000000	96.953	27.8429
65.000000	97.249	28.3809
66.000000	97.285	27.2549
67.000000	97.318	28.3839
68.000000	97.369	27.8785
69.000000	97.265	27.7519
70.000000	97.235	27.3834
71.000000	97.221	26.6578
72.000000	97.211	25.8718
73.000000	97.251	25.4260
74.000000	97.304	24.9175
75.000000	97.343	24.7649
76.199997	97.371	24.4952
77.500000	97.381	24.3922
78.800003	97.373	23.8049
80.000000	97.372	23.2305
81.199997	97.342	22.6335
82.500000	97.389	22.5491
83.800003	97.443	21.9060
85.000000	97.417	21.6168
86.199997	97.420	21.5577
87.500000	97.436	20.9888
88.500000	97.402	20.6823
90.000000	97.421	20.3291
91.199997	97.435	20.2419
92.500000	97.495	19.9125
93.800003	97.477	19.6130
95.000000	97.477	19.5176
96.199997	97.488	19.1448
97.500000	97.470	18.7466
98.800003	97.484	18.2985
100.000000	97.453	18.0856
101.500000	97.512	18.0172
103.000000	97.508	17.6107
104.400002	97.507	17.6084
106.000000	97.536	17.3035
107.500000	97.540	16.9154
109.000000	97.504	16.8868
110.599998	97.532	16.3506
112.000000	97.505	16.3119
113.800003	97.503	15.3416
115.000000	97.517	15.4128
117.199997	97.570	15.9124
118.000000	97.691	15.8307
120.599998	97.771	14.1412
122.000000	97.576	14.5698
124.099998	97.508	14.5746
125.000000	97.566	14.4731
126.500000	97.520	13.8220
128.000000	97.550	13.6911
131.500000	97.525	13.0536
132.000000	97.536	12.8923
134.000000	97.550	11.7854
136.000000	97.476	13.0590
138.000000	97.571	12.9985
140.000000	97.488	11.7904
143.000000	97.503	11.8304
145.000000	97.480	11.3070
147.500000	97.519	10.9542
150.000000	97.607	10.9533
152.500000	97.595	11.1495
155.000000	97.561	11.1630
157.500000	97.618	10.5541
160.000000	97.553	10.9191
162.500000	97.514	9.8925
165.000000	97.414	9.9522
167.500000	97.209	10.3858
170.000000	97.371	9.5902
172.500000	97.913	11.9241
175.000000	97.234	9.8612
177.500000	97.349	8.8152
180.000000	97.467	11.7390
182.500000	97.525	9.8966
185.000000	97.276	9.9854
187.500000	97.361	8.2538
190.000000	97.452	8.2357
192.500000	97.464	8.6106
195.000000	97.568	9.9485
197.500000	97.457	8.5104
200.000000	97.407	7.9013
203.000000	97.463	8.1447
206.000000	97.492	8.3353
209.000000	97.404	8.0363
212.000000	97.457	7.8882
214.000000	97.357	7.4368
218.000000	97.778	10.7505
220.000000	97.465	8.2142
224.000000	97.374	6.7936
227.000000	97.368	6.3944
230.000000	97.347	7.1100
233.000000	97.438	6.4735
236.000000	97.255	5.8463
240.000000	97.321	6.4680
243.000000	97.358	5.8787
247.000000	97.326	6.0665
250.000000	97.346	5.6260
254.000000	97.335	5.6666
258.000000	97.315	5.6749
262.000000	97.331	5.7457
265.000000	97.323	5.0181
269.000000	97.279	5.0745
272.000000	97.267	4.9384
276.000000	97.275	5.0031
280.000000	97.274	4.3640
285.000000	97.277	4.8010
290.000000	97.230	4.9978
295.000000	97.214	3.8558
300.000000	97.118	4.0426
304.000000	97.173	4.2612
307.000000	97.112	4.3260
311.000000	97.103	4.4479
315.000000	97.117	4.0861
320.000000	97.104	4.4192
325.000000	97.028	3.8699
330.000000	96.973	4.0385
335.000000	96.973	4.3888
340.000000	97.027	4.0111
345.000000	96.951	4.1950
350.000000	96.980	4.6101
355.000000	96.930	4.2940
360.000000	96.925	4.1879
365.000000	96.974	3.9810
370.000000	96.963	4.0038
375.000000	96.935	3.6713
382.000000	96.915	4.1123
387.000000	96.823	3.8126
395.000000	96.820	3.9920
400.000000	96.850	3.4291
406.000000	96.848	3.9161
412.000000	96.816	3.9857
418.000000	96.704	3.9778
425.000000	96.772	3.9512
431.000000	96.748	3.6173
437.000000	96.676	3.7310
444.000000	96.696	3.8180
450.000000	96.687	3.8658
455.000000	96.710	3.5622
462.000000	96.634	4.0696
468.000000	96.619	3.9852
475.000000	96.534	3.6619
482.000000	96.538	4.0086
487.000000	96.531	4.1307
494.000000	96.480	4.1047
500.000000	96.532	3.7866
508.000000	96.437	4.3924
515.000000	96.401	4.3385
522.000000	96.425	4.2779
530.000000	96.368	4.2051
538.000000	96.306	4.6296
545.000000	96.343	4.7037
552.000000	96.270	4.7927
560.000000	96.238	4.8898
570.000000	96.154	5.1432
580.000000	96.208	5.1866
590.000000	96.170	5.4045
600.000000	96.120	5.3605
608.000000	96.081	5.8522
615.000000	96.049	5.7842
622.000000	96.031	6.0720
630.000000	96.017	6.0344
640.000000	95.957	6.5762
650.000000	95.899	6.6636
660.000000	95.910	7.1835
670.000000	95.883	7.2186
680.000000	95.784	7.3695
690.000000	95.817	7.6911
700.000000	95.778	7.9005
710.000000	95.739	8.1756
720.000000	95.677	8.5452
730.000000	95.665	8.7930
740.000000	95.641	9.3008
750.000000	95.608	9.2856
762.000000	95.558	9.7371
775.000000	95.530	10.3771
788.000000	95.412	11.1386
800.000000	95.364	11.2755
812.000000	95.371	11.4664
825.000000	95.320	12.5017
838.000000	95.296	12.8810
850.000000	95.246	13.6154
862.000000	95.164	14.5939
875.000000	95.137	15.2322
885.000000	95.110	15.5763
900.000000	95.066	16.5803
912.000000	95.023	17.5563
925.000000	94.997	18.4996
938.000000	94.964	19.3923
950.000000	94.981	20.6469
962.000000	94.942	21.3055
975.000000	94.996	22.4586
988.000000	94.989	23.5732
1000.000000	94.999	24.8524
1015.000000	95.053	26.2952
1030.000000	95.124	27.7087
1044.000000	95.228	29.3551
1060.000000	95.435	30.9972
1075.000000	95.610	32.0765
1090.000000	95.822	33.3357
1106.000000	96.114	33.9538
1120.000000	96.276	34.5974
1138.000000	96.535	34.7142
1150.000000	96.727	34.9291
1172.000000	96.971	34.8960
1180.000000	97.042	34.8438
1206.000000	97.285	34.4006
1220.000000	97.394	33.9410
1241.000000	97.542	34.0255
1250.000000	97.572	33.8029
1265.000000	97.645	33.7086
1280.000000	97.718	33.6624
1315.000000	97.869	33.7071
1320.000000	97.861	33.6787
1340.000000	97.917	33.5503
1360.000000	98.021	33.7951
1380.000000	98.115	34.0345
1400.000000	98.132	34.0594
1430.000000	98.237	34.3426
1450.000000	98.321	34.5092
1475.000000	98.424	34.8187
1500.000000	98.512	34.9983
1525.000000	98.620	35.4566
1550.000000	98.714	35.8802
1575.000000	98.826	36.2498
1600.000000	98.933	36.6451
1625.000000	99.063	36.8646
1650.000000	99.186	37.2286
1675.000000	99.313	37.5431
1700.000000	99.461	37.9444
1725.000000	99.607	38.2737
1750.000000	99.753	38.5277
1775.000000	99.878	38.6017
1800.000000	100.064	39.0207
1825.000000	100.215	39.1941
1850.000000	100.356	39.2519
1875.000000	100.545	39.4318
1900.000000	100.691	39.6189
1925.000000	100.892	39.6797
1950.000000	101.082	39.5980
1975.000000	101.271	39.5078
2000.000000	101.436	39.5009
2030.000000	101.663	39.2391
2060.000000	101.923	39.0880
2090.000000	102.163	38.6285
2120.000000	102.383	38.2177
2140.000000	102.546	37.7965
2180.000000	102.873	36.9327
2200.000000	103.041	36.5690
2240.000000	103.366	35.3690
2270.000000	103.581	34.3017
2300.000000	103.797	33.1711
2330.000000	104.016	31.9546
2360.000000	104.251	30.5855
2400.000000	104.495	28.6048
2430.000000	104.673	26.9686
2470.000000	104.884	24.6086
2500.000000	105.015	22.7670
2540.000000	105.175	20.3163
2580.000000	105.272	17.6733
2620.000000	105.305	14.7997
2650.000000	105.319	12.9830
2690.000000	105.290	10.3662
2720.000000	105.268	8.4089
2760.000000	105.166	6.0428
2800.000000	105.039	3.6440
2850.000000	104.854	1.0435
2900.000000	104.589	-1.2670
2950.000000	104.346	-3.1705
3000.000000	104.073	-4.8822
3040.000000	103.839	-6.0599
3070.000000	103.683	-6.8220
3110.000000	103.468	-7.7604
3150.000000	103.242	-8.2869
3200.000000	102.970	-9.0063
3250.000000	102.695	-9.5330
3300.000000	102.424	-9.6753
3350.000000	102.208	-9.8513
3400.000000	101.984	-9.6577
3450.000000	101.783	-9.5005
3500.000000	101.621	-9.2759
3550.000000	101.424	-8.9949
3600.000000	101.250	-8.5750
3650.000000	101.112	-7.9967
3700.000000	101.034	-7.3827
3750.000000	100.917	-6.8160
3820.000000	100.807	-5.8678
3870.000000	100.745	-5.2753
3950.000000	100.677	-4.1953
4000.000000	100.692	-3.4797
4060.000000	100.697	-2.4177
4120.000000	100.752	-1.4416
4180.000000	100.821	-0.9492
4250.000000	100.947	-0.2154
4310.000000	101.074	0.4841
4370.000000	101.256	1.1418
4440.000000	101.486	1.2911
4500.000000	101.745	1.3943
4550.000000	101.981	1.3429
4620.000000	102.330	0.9061
4680.000000	102.671	0.0665
4750.000000	103.101	-1.3449
4820.000000	103.579	-3.5482
4870.000000	103.905	-5.8138
4940.000000	104.321	-9.6429
5000.000000	104.617	-14.0991
5080.000000	104.771	-20.8024
5150.000000	104.610	-26.8780
5220.000000	104.263	-32.0964
5300.000000	103.913	-36.1107
5380.000000	103.726	-40.9901
5450.000000	103.438	-46.8020
5520.000000	102.867	-52.5610
5600.000000	101.966	-57.9183
5700.000000	100.697	-62.5883
5800.000000	99.395	-65.1056
5900.000000	98.135	-65.9460
6000.000000	96.984	-65.9977
6080.000000	96.091	-65.2643
6150.000000	95.425	-63.9592
6220.000000	94.741	-63.0547
6300.000000	93.993	-61.1821
6400.000000	93.153	-59.1479
6500.000000	92.434	-56.1353
6600.000000	91.728	-53.2230
6700.000000	91.102	-50.1402
6800.000000	90.579	-46.5863
6900.000000	90.051	-43.8568
7000.000000	89.591	-40.3036
7100.000000	89.205	-36.2335
7200.000000	88.877	-32.8706
7300.000000	88.552	-29.4221
7400.000000	88.252	-25.8221
7500.000000	88.040	-20.5244
7620.000000	88.119	-17.2030
7750.000000	88.013	-12.8948
7880.000000	87.952	-8.5163
8000.000000	88.166	-3.5748
8120.000000	88.562	0.1268
8250.000000	88.627	2.6068
8380.000000	89.221	5.6914
8500.000000	89.663	7.5780
8620.000000	90.280	8.4391
8750.000000	91.067	7.7325
8850.000000	91.702	6.4167
9000.000000	92.749	0.0684
9120.000000	93.236	-8.3019
9250.000000	93.245	-18.6057
9380.000000	92.527	-28.7548
9500.000000	91.404	-35.8760
9620.000000	90.018	-40.5593
9750.000000	88.627	-42.3594
9880.000000	87.216	-42.7642
10000.000000	86.062	-41.4242
10150.000000	84.748	-37.5897
10300.000000	83.808	-35.2272
10440.000000	83.017	-31.5737
10600.000000	82.243	-25.8887
10750.000000	81.473	-23.3206
10900.000000	80.772	-17.9708
11060.000000	80.290	-14.2159
11200.000000	79.803	-9.0815
11380.000000	79.317	-4.7043
11500.000000	78.955	-0.8456
11720.000000	78.979	3.7871
11800.000000	78.722	9.0718
12060.000000	78.190	16.1741
12200.000000	78.706	18.2190
12410.000000	78.961	27.9042
12500.000000	79.407	25.5267
12650.000000	79.613	31.7509
12800.000000	80.275	33.9192
13150.000000	82.820	34.3071
13200.000000	83.202	32.9506
13400.000000	84.674	25.4130
13600.000000	85.764	7.5497
13800.000000	84.956	-10.8821
14000.000000	83.140	-26.3494
14300.000000	79.394	-30.5824
14500.000000	77.122	-34.1729
14750.000000	75.145	-31.1063
15000.000000	73.446	-29.0468
15250.000000	71.795	-16.9257
15500.000000	71.629	-24.9722
15750.000000	70.795	-12.3587
16000.000000	69.398	-0.3682
16250.000000	68.903	3.6982
16500.000000	68.724	4.1631
16750.000000	68.266	13.1278
17000.000000	69.389	24.5273
17250.000000	69.421	18.0800
17500.000000	70.839	17.7162
17750.000000	71.734	21.7799
18000.000000	72.414	12.1855
18250.000000	73.385	-1.8328
18500.000000	73.623	-26.3641
18750.000000	66.904	-30.8820
19000.000000	73.158	-13.2565
19250.000000	72.590	-37.3423
19500.000000	72.752	-52.6604
19750.000000	72.240	-62.2587
