* Measurement data measured by REW V5.31.1
* Source: EXCL: Micr√≥fono (Realtek(R) Audio), MICROPHONE (Volumen general), L, volume: 0,900. Timing signal peak level -10,3 dBFS, measurement signal peak level -7,9 dBFS
* Format: 512k Log Swept Sine, 1 sweep at -12,0 dBFS using an acoustic timing reference
* Dated: 26/09/2024 02:31:40 PM
* REW Settings:
*  C-weighting compensation: Off
*  Target level: 75.0 dB
* Note: Delay -0,0310 ms (-11 mm, -0,42 in) using estimated IR delay relative to Acoustic reference played from HEADPHONE R with no timing offset Clock adjustment: 19,8 ppm
* Measurement: hc1 mic 1
* Smoothing: None
* Frequency Step: 1/48 octave
* Start Frequency: 20.000 Hz
*
* Freq(Hz)	SPL(dB)	Phase(degrees)
20.000000	86.100	84.7479
20.299999	86.203	83.8617
20.600000	86.284	83.0148
20.900000	86.351	82.2957
21.200001	86.420	81.7528
21.400000	86.478	81.4568
21.799999	86.628	80.8690
22.000000	86.717	80.4944
22.400000	86.898	79.4492
22.700001	87.009	78.4350
23.000000	87.076	77.3620
23.299999	87.103	76.4146
23.600000	87.107	75.7177
24.000000	87.118	75.2319
24.299999	87.163	75.0687
24.700001	87.280	74.8009
25.000000	87.392	74.3705
25.400000	87.525	73.4382
25.799999	87.602	72.3144
26.200001	87.623	71.3298
26.500000	87.623	70.8066
26.900000	87.638	70.3717
27.200001	87.675	70.1182
27.600000	87.753	69.6888
28.000000	87.841	69.0535
28.500000	87.932	68.0640
29.000000	88.001	67.0404
29.500000	88.061	65.9750
30.000000	88.093	64.8011
30.400000	88.072	63.9314
30.700001	88.030	63.4883
31.100000	87.972	63.3715
31.500000	87.968	63.7652
32.000000	88.102	64.4319
32.500000	88.354	64.4972
33.000000	88.603	63.7254
33.500000	88.777	62.5404
34.000000	88.888	61.3806
34.500000	88.969	60.2768
35.000000	89.012	59.1222
35.500000	88.988	58.1073
36.000000	88.925	57.6202
36.500000	88.905	57.7084
37.000000	88.983	57.8487
37.500000	89.115	57.5092
38.200001	89.246	56.3478
38.700001	89.280	55.5824
39.500000	89.353	54.7927
40.000000	89.429	54.2113
40.599998	89.495	53.3017
41.200001	89.503	52.5482
41.799999	89.502	52.2481
42.500000	89.566	52.1124
43.099998	89.636	51.6503
43.700001	89.642	51.0450
44.400002	89.604	50.7794
45.000000	89.627	50.6965
45.500000	89.659	50.2371
46.200001	89.607	49.3279
46.799999	89.516	49.2243
47.500000	89.574	49.5570
48.200001	89.749	48.8513
48.700001	89.812	47.8476
49.400002	89.815	46.8877
50.000000	89.858	46.5865
50.799999	89.985	45.9656
51.500000	90.033	45.1586
52.200001	89.987	44.8504
53.000000	89.972	45.4968
53.799999	90.094	45.7621
54.500000	90.113	45.1505
55.200001	90.050	45.0703
56.000000	90.142	44.7641
57.000000	90.071	42.5531
58.000000	90.106	42.5735
59.000000	90.424	38.1571
60.000000	89.652	35.3571
60.799999	89.490	39.6697
61.500000	89.943	41.4521
62.200001	90.249	41.3023
63.000000	90.465	41.3673
64.000000	90.667	41.5192
65.000000	90.955	40.9327
66.000000	90.742	38.0889
67.000000	90.363	40.5767
68.000000	90.785	40.0894
69.000000	90.476	37.9244
70.000000	90.493	39.4493
71.000000	90.602	38.0941
72.000000	90.500	38.2990
73.000000	90.519	38.8795
74.000000	90.688	39.8714
75.000000	90.897	38.2074
76.199997	90.663	37.4076
77.500000	90.752	37.0350
78.800003	90.731	36.7006
80.000000	90.819	35.9759
81.199997	90.818	36.3572
82.500000	90.907	35.8701
83.800003	90.821	36.6367
85.000000	90.879	36.1853
86.199997	90.735	36.4242
87.500000	90.840	36.0663
88.500000	90.808	35.6355
90.000000	90.930	34.7043
91.199997	90.876	34.6246
92.500000	91.071	34.3282
93.800003	90.953	33.8130
95.000000	91.068	34.6010
96.199997	91.083	33.5507
97.500000	90.991	33.9637
98.800003	91.086	34.1483
100.000000	91.136	33.3374
101.500000	91.055	33.6491
103.000000	91.197	33.2731
104.400002	91.122	32.8025
106.000000	91.119	33.6174
107.500000	91.210	33.3705
109.000000	91.293	33.0410
110.599998	91.236	32.3189
112.000000	91.179	32.5998
113.800003	91.283	33.1640
115.000000	91.306	32.9095
117.199997	91.306	32.2405
118.000000	91.237	32.4989
120.599998	91.351	32.2484
122.000000	91.320	31.9726
124.099998	91.336	31.7726
125.000000	91.311	32.1397
126.500000	91.408	32.1756
128.000000	91.375	32.3229
131.500000	91.446	31.9597
132.000000	91.467	31.9881
134.000000	91.460	31.9749
136.000000	91.475	32.0720
138.000000	91.524	32.2521
140.000000	91.514	32.3764
143.000000	91.534	31.9727
145.000000	91.542	31.5565
147.500000	91.549	31.1134
150.000000	91.601	32.1291
152.500000	91.628	31.9778
155.000000	91.577	31.7615
157.500000	91.668	31.2049
160.000000	91.707	31.1463
162.500000	91.781	32.5713
165.000000	91.756	32.2494
167.500000	91.774	32.3452
170.000000	91.816	32.3482
172.500000	91.835	32.4755
175.000000	91.883	33.2516
177.500000	91.821	32.1162
180.000000	91.861	32.1385
182.500000	91.954	32.0119
185.000000	91.963	32.5820
187.500000	91.997	32.8065
190.000000	92.047	32.5928
192.500000	92.015	32.9196
195.000000	92.008	32.9960
197.500000	92.056	32.8965
200.000000	92.027	33.2564
203.000000	92.096	33.0060
206.000000	92.130	33.6871
209.000000	92.166	33.6108
212.000000	92.131	33.8345
214.000000	92.183	33.6077
218.000000	92.206	34.1295
220.000000	92.322	33.7782
224.000000	92.339	34.0734
227.000000	92.354	34.2382
230.000000	92.346	34.5235
233.000000	92.413	34.3868
236.000000	92.451	34.3372
240.000000	92.369	35.3533
243.000000	92.451	34.9523
247.000000	92.516	35.5902
250.000000	92.555	35.0172
254.000000	92.558	35.8213
258.000000	92.616	35.7720
262.000000	92.701	35.2609
265.000000	92.700	36.0527
269.000000	92.680	36.3697
272.000000	92.650	35.9365
276.000000	92.801	36.3720
280.000000	92.806	36.5916
285.000000	92.786	36.9054
290.000000	92.895	36.9978
295.000000	92.857	38.1645
300.000000	92.957	37.6964
304.000000	93.104	37.8398
307.000000	93.112	38.1398
311.000000	93.162	38.3193
315.000000	93.183	38.2389
320.000000	93.264	38.7170
325.000000	93.268	38.7720
330.000000	93.347	39.2640
335.000000	93.321	39.5289
340.000000	93.415	39.4031
345.000000	93.547	39.5371
350.000000	93.534	39.8637
355.000000	93.566	40.0912
360.000000	93.633	40.3590
365.000000	93.692	40.3675
370.000000	93.738	40.7017
375.000000	93.853	40.5035
382.000000	93.923	41.1978
387.000000	93.977	41.5303
395.000000	94.060	41.5097
400.000000	94.079	41.9837
406.000000	94.144	42.1482
412.000000	94.188	42.1147
418.000000	94.349	42.5425
425.000000	94.316	42.8813
431.000000	94.404	42.6879
437.000000	94.546	42.6482
444.000000	94.553	43.1776
450.000000	94.627	43.5565
455.000000	94.706	43.7866
462.000000	94.773	43.6190
468.000000	94.829	43.8460
475.000000	94.889	44.0115
482.000000	94.962	44.0093
487.000000	95.062	44.2648
494.000000	95.119	44.5342
500.000000	95.171	44.4657
508.000000	95.237	44.8784
515.000000	95.331	44.7037
522.000000	95.427	44.7875
530.000000	95.517	45.0671
538.000000	95.540	45.3474
545.000000	95.632	44.9612
552.000000	95.719	45.3004
560.000000	95.763	45.2703
570.000000	95.882	45.3572
580.000000	95.966	45.4834
590.000000	96.094	45.6607
600.000000	96.112	45.5780
608.000000	96.203	45.5780
615.000000	96.253	45.8121
622.000000	96.333	45.5529
630.000000	96.383	45.7745
640.000000	96.473	45.7917
650.000000	96.517	45.7581
660.000000	96.538	45.9969
670.000000	96.640	45.3097
680.000000	96.708	45.6754
690.000000	96.720	45.5917
700.000000	96.846	45.3857
710.000000	96.865	45.5551
720.000000	96.952	45.3491
730.000000	96.980	45.3269
740.000000	97.021	45.5088
750.000000	97.056	45.2139
762.000000	97.088	45.2412
775.000000	97.108	45.1183
788.000000	97.175	45.4445
800.000000	97.189	45.4965
812.000000	97.261	45.7639
825.000000	97.256	45.5711
838.000000	97.281	45.6839
850.000000	97.334	45.8335
862.000000	97.304	46.1343
875.000000	97.341	46.2193
885.000000	97.347	46.4716
900.000000	97.360	47.3148
912.000000	97.338	47.4832
925.000000	97.361	47.7445
938.000000	97.402	48.6717
950.000000	97.432	49.1927
962.000000	97.470	49.8725
975.000000	97.499	50.4894
988.000000	97.594	51.4076
1000.000000	97.639	52.2047
1015.000000	97.759	52.9203
1030.000000	97.885	54.1134
1044.000000	98.034	54.7968
1060.000000	98.208	55.6076
1075.000000	98.378	56.4197
1090.000000	98.589	56.7181
1106.000000	98.821	57.0943
1120.000000	99.033	57.1905
1138.000000	99.249	56.7653
1150.000000	99.414	56.6587
1172.000000	99.665	55.9792
1180.000000	99.699	55.8135
1206.000000	99.905	54.9805
1220.000000	99.966	54.8318
1241.000000	100.093	54.2524
1250.000000	100.128	54.0010
1265.000000	100.193	53.5798
1280.000000	100.241	53.3199
1315.000000	100.324	53.0116
1320.000000	100.350	52.9199
1340.000000	100.397	52.8699
1360.000000	100.455	52.7252
1380.000000	100.502	52.8613
1400.000000	100.538	52.7420
1430.000000	100.621	52.8335
1450.000000	100.665	53.0590
1475.000000	100.736	53.2643
1500.000000	100.796	53.6071
1525.000000	100.886	53.8524
1550.000000	100.981	54.1357
1575.000000	101.064	54.4482
1600.000000	101.156	54.9121
1625.000000	101.235	55.2148
1650.000000	101.354	55.5467
1675.000000	101.475	55.9586
1700.000000	101.584	56.1993
1725.000000	101.713	56.6494
1750.000000	101.841	57.0319
1775.000000	101.966	57.3640
1800.000000	102.116	57.6912
1825.000000	102.253	57.8224
1850.000000	102.397	58.1248
1875.000000	102.563	58.2560
1900.000000	102.734	58.5577
1925.000000	102.902	58.7027
1950.000000	103.089	58.8107
1975.000000	103.251	58.9356
2000.000000	103.422	58.9620
2030.000000	103.653	58.9538
2060.000000	103.877	58.8519
2090.000000	104.114	58.7873
2120.000000	104.343	58.4964
2140.000000	104.512	58.2422
2180.000000	104.838	57.6586
2200.000000	104.988	57.3721
2240.000000	105.306	56.4693
2270.000000	105.538	55.6916
2300.000000	105.773	54.8704
2330.000000	105.995	53.8446
2360.000000	106.213	52.6846
2400.000000	106.496	50.9478
2430.000000	106.705	49.5371
2470.000000	106.924	47.4826
2500.000000	107.075	45.9303
2540.000000	107.228	43.5943
2580.000000	107.322	41.3774
2620.000000	107.382	39.0184
2650.000000	107.388	37.3019
2690.000000	107.370	35.0654
2720.000000	107.319	33.3800
2760.000000	107.220	31.4268
2800.000000	107.093	29.5736
2850.000000	106.896	27.4824
2900.000000	106.657	25.7889
2950.000000	106.401	24.4579
3000.000000	106.141	23.4215
3040.000000	105.907	22.8082
3070.000000	105.746	22.4253
3110.000000	105.529	22.1880
3150.000000	105.337	22.0981
3200.000000	105.083	22.0995
3250.000000	104.850	22.4479
3300.000000	104.644	22.9847
3350.000000	104.463	23.5597
3400.000000	104.299	24.4875
3450.000000	104.143	25.3268
3500.000000	104.014	26.3135
3550.000000	103.904	27.3185
3600.000000	103.810	28.4479
3650.000000	103.750	29.7785
3700.000000	103.715	31.1294
3750.000000	103.695	32.3684
3820.000000	103.726	34.1644
3870.000000	103.757	35.5911
3950.000000	103.880	37.7664
4000.000000	104.001	39.0186
4060.000000	104.157	40.5404
4120.000000	104.358	42.1253
4180.000000	104.578	43.3256
4250.000000	104.946	44.7968
4310.000000	105.283	45.9889
4370.000000	105.646	46.7489
4440.000000	106.150	47.4814
4500.000000	106.611	47.7994
4550.000000	107.037	47.7161
4620.000000	107.663	47.0661
4680.000000	108.245	45.9575
4750.000000	108.940	43.6732
4820.000000	109.623	40.1647
4870.000000	110.071	36.9283
4940.000000	110.585	31.0478
5000.000000	110.826	25.1677
5080.000000	110.819	16.7411
5150.000000	110.434	9.9122
5220.000000	109.826	4.7156
5300.000000	109.073	1.2141
5380.000000	108.503	-1.0364
5450.000000	108.077	-3.2474
5520.000000	107.591	-5.6984
5600.000000	106.898	-7.8175
5700.000000	106.011	-9.0038
5800.000000	105.158	-8.8160
5900.000000	104.378	-7.4528
6000.000000	103.740	-5.4788
6080.000000	103.329	-3.6804
6150.000000	103.012	-1.8113
6220.000000	102.748	0.1543
6300.000000	102.543	2.4933
6400.000000	102.350	5.4552
6500.000000	102.253	8.4276
6600.000000	102.287	11.3062
6700.000000	102.397	14.1259
6800.000000	102.680	16.7776
6900.000000	103.057	18.9191
7000.000000	103.609	20.6755
7100.000000	104.312	21.1771
7200.000000	105.187	20.7725
7300.000000	106.181	18.2881
7400.000000	107.285	13.0389
7500.000000	108.225	3.9951
7620.000000	108.829	-10.5708
7750.000000	107.958	-30.5151
7880.000000	105.834	-43.6640
8000.000000	103.552	-49.0161
8120.000000	101.705	-50.8755
8250.000000	99.944	-49.0936
8380.000000	98.290	-48.1729
8500.000000	96.914	-45.4098
8620.000000	95.723	-41.8394
8750.000000	94.586	-38.0217
8850.000000	93.756	-33.9910
9000.000000	92.710	-28.6959
9120.000000	91.999	-24.4904
9250.000000	91.318	-18.8489
9380.000000	90.708	-14.3043
9500.000000	90.177	-9.3165
9620.000000	89.731	-3.9455
9750.000000	89.482	1.1006
9880.000000	89.038	6.4436
10000.000000	88.941	12.0177
10150.000000	88.894	18.1444
10300.000000	88.620	24.3939
10440.000000	88.667	30.1231
10600.000000	88.981	36.3486
10750.000000	89.267	41.3861
10900.000000	89.525	47.0302
11060.000000	90.230	51.8647
11200.000000	90.855	56.3288
11380.000000	92.003	60.9495
11500.000000	92.938	63.4547
11720.000000	95.137	64.8518
11800.000000	96.171	63.2957
12060.000000	99.718	44.2824
12200.000000	100.362	22.3718
12410.000000	97.892	-4.9215
12500.000000	96.433	-10.2150
12650.000000	94.192	-14.4674
12800.000000	92.251	-14.4829
13150.000000	89.131	-7.6959
13200.000000	88.785	-6.7346
13400.000000	87.622	-2.5239
13600.000000	86.743	3.8275
13800.000000	86.225	10.0684
14000.000000	85.981	15.3404
14300.000000	86.240	23.0972
14500.000000	86.758	28.1815
14750.000000	87.832	29.6873
15000.000000	89.527	25.0188
15250.000000	91.319	7.3843
15500.000000	90.353	-19.2082
15750.000000	87.000	-35.1885
16000.000000	83.757	-37.3723
16250.000000	81.238	-37.8882
16500.000000	79.428	-30.8147
16750.000000	77.976	-22.4686
17000.000000	77.151	-15.8056
17250.000000	76.971	-9.9580
17500.000000	76.237	-8.3717
17750.000000	76.677	-1.3213
18000.000000	77.547	-1.7485
18250.000000	78.509	-7.2866
18500.000000	79.347	-26.4972
18750.000000	73.941	-41.8013
19000.000000	77.293	-0.4918
19250.000000	80.444	-32.1522
19500.000000	78.741	-56.7529
19750.000000	76.773	-76.6779
