* Measurement data measured by REW V5.31.1
* Source: EXCL: Micr√≥fono (Realtek(R) Audio), MICROPHONE (Volumen general), L, volume: 0,900. Timing signal peak level -16,7 dBFS, measurement signal peak level -14,9 dBFS
* Format: 512k Log Swept Sine, 1 sweep at -12,0 dBFS using an acoustic timing reference
* Dated: 12/09/2024 06:49:14 PM
* REW Settings:
*  C-weighting compensation: Off
*  Target level: 75.0 dB
* Note: Delay -0,0335 ms (-11 mm, -0,45 in) using estimated IR delay relative to Acoustic reference played from HEADPHONE R with no timing offset Clock adjustment: 18,8 ppm
* Measurement: 712 d6 mic 2 v 1-3
* Smoothing: None
* Frequency Step: 1/48 octave
* Start Frequency: 20.000 Hz
*
* Freq(Hz)	SPL(dB)	Phase(degrees)
20.000000	96.166	91.0967
20.299999	96.236	90.6470
20.600000	96.352	90.6689
20.900000	96.558	90.8423
21.200001	96.857	90.6274
21.400000	97.070	90.0463
21.799999	97.440	87.8860
22.000000	97.557	86.4561
22.400000	97.601	83.5012
22.700001	97.491	81.7752
23.000000	97.324	80.8970
23.299999	97.192	80.8432
23.600000	97.156	81.2250
24.000000	97.273	81.5540
24.299999	97.423	81.1598
24.700001	97.591	79.7649
25.000000	97.646	78.4283
25.400000	97.636	76.8136
25.799999	97.602	75.7106
26.200001	97.620	74.9598
26.500000	97.678	74.3833
26.900000	97.793	73.3945
27.200001	97.884	72.4877
27.600000	97.992	71.1764
28.000000	98.083	69.8928
28.500000	98.180	68.4834
29.000000	98.278	67.4770
29.500000	98.434	66.9042
30.000000	98.699	66.1955
30.400000	98.944	64.9554
30.700001	99.089	63.5295
31.100000	99.153	61.2975
31.500000	99.042	59.3581
32.000000	98.749	58.4840
32.500000	98.548	59.6142
33.000000	98.641	61.1816
33.500000	98.918	61.4323
34.000000	99.132	60.2350
34.500000	99.180	58.6636
35.000000	99.131	57.5474
35.500000	99.097	56.9374
36.000000	99.119	56.3829
36.500000	99.166	55.6155
37.000000	99.206	54.7251
37.500000	99.242	53.8779
38.200001	99.314	52.7399
38.700001	99.373	51.8321
39.500000	99.419	50.3903
40.000000	99.426	49.7522
40.599998	99.455	49.2394
41.200001	99.507	48.7086
41.799999	99.546	48.1298
42.500000	99.589	47.6232
43.099998	99.666	47.0739
43.700001	99.724	46.0681
44.400002	99.687	44.8706
45.000000	99.642	44.4647
45.500000	99.679	44.2446
46.200001	99.775	43.2746
46.799999	99.768	42.1934
47.500000	99.730	41.7909
48.200001	99.839	41.6505
48.700001	99.946	40.9838
49.400002	99.975	39.7717
50.000000	99.946	39.3832
50.799999	100.020	39.1872
51.500000	100.086	38.3694
52.200001	100.060	37.6430
53.000000	100.054	37.2645
53.799999	100.076	36.5646
54.500000	100.066	35.9294
55.200001	100.074	35.2789
56.000000	100.048	34.3883
57.000000	100.054	34.0200
58.000000	100.128	32.5250
59.000000	99.906	32.3887
60.000000	100.188	33.7174
60.799999	100.386	31.8685
61.500000	100.264	30.9894
62.200001	100.294	31.4551
63.000000	100.474	30.3126
64.000000	100.269	28.5009
65.000000	100.201	29.2279
66.000000	100.308	28.3817
67.000000	100.250	27.6755
68.000000	100.285	27.4119
69.000000	100.336	26.7878
70.000000	100.366	26.0936
71.000000	100.364	25.4274
72.000000	100.349	25.0137
73.000000	100.366	24.6096
74.000000	100.350	24.0258
75.000000	100.332	23.8436
76.199997	100.366	23.2932
77.500000	100.350	22.8762
78.800003	100.381	22.2595
80.000000	100.366	21.7616
81.199997	100.360	21.2277
82.500000	100.357	20.7468
83.800003	100.343	20.1467
85.000000	100.351	19.8901
86.199997	100.375	19.3583
87.500000	100.367	19.1121
88.500000	100.418	18.8484
90.000000	100.401	18.0389
91.199997	100.392	17.7632
92.500000	100.368	17.2387
93.800003	100.361	16.9761
95.000000	100.360	16.6499
96.199997	100.383	16.2474
97.500000	100.342	15.9159
98.800003	100.401	15.6849
100.000000	100.361	15.0998
101.500000	100.392	14.9567
103.000000	100.367	14.3441
104.400002	100.364	14.1152
106.000000	100.370	13.7578
107.500000	100.333	13.2806
109.000000	100.349	12.9738
110.599998	100.280	12.6235
112.000000	100.364	12.3490
113.800003	100.309	11.9409
115.000000	100.321	11.6483
117.199997	100.282	11.4493
118.000000	100.309	11.4849
120.599998	100.291	11.1471
122.000000	100.340	9.8048
124.099998	100.258	9.7509
125.000000	100.251	9.9211
126.500000	100.277	9.3368
128.000000	100.246	9.5514
131.500000	100.223	8.6816
132.000000	100.214	8.5806
134.000000	100.210	8.0480
136.000000	100.185	7.4847
138.000000	100.227	7.7018
140.000000	100.133	7.0023
143.000000	100.151	6.9349
145.000000	100.194	6.5571
147.500000	100.157	6.3309
150.000000	100.127	5.9532
152.500000	100.114	5.7015
155.000000	100.078	5.1749
157.500000	100.117	4.6890
160.000000	100.066	4.5638
162.500000	100.066	4.6027
165.000000	99.983	4.4359
167.500000	99.966	4.2437
170.000000	99.989	3.9007
172.500000	99.973	3.2523
175.000000	99.966	2.9840
177.500000	99.942	2.7603
180.000000	99.886	2.5305
182.500000	99.894	2.5108
185.000000	99.861	1.8651
187.500000	99.859	1.6668
190.000000	99.837	1.5439
192.500000	99.842	1.2102
195.000000	99.810	1.0972
197.500000	99.795	0.8775
200.000000	99.753	0.8248
203.000000	99.780	0.7054
206.000000	99.703	0.0085
209.000000	99.683	-0.2075
212.000000	99.662	-0.2109
214.000000	99.652	-0.3083
218.000000	99.617	-0.8010
220.000000	99.596	-0.7912
224.000000	99.557	-0.9001
227.000000	99.539	-0.9386
230.000000	99.475	-0.8633
233.000000	99.431	-1.2355
236.000000	99.404	-1.3546
240.000000	99.410	-1.6239
243.000000	99.368	-1.9125
247.000000	99.359	-2.2282
250.000000	99.322	-2.3514
254.000000	99.209	-2.4385
258.000000	99.256	-2.8469
262.000000	99.189	-2.5894
265.000000	99.191	-2.7394
269.000000	99.124	-2.8440
272.000000	99.143	-2.8463
276.000000	99.084	-2.7750
280.000000	99.001	-3.0967
285.000000	99.021	-3.0278
290.000000	98.993	-3.3594
295.000000	98.973	-3.6185
300.000000	98.956	-3.5638
304.000000	98.889	-3.6671
307.000000	98.839	-3.8586
311.000000	98.826	-4.1645
315.000000	98.781	-4.2060
320.000000	98.787	-4.2009
325.000000	98.757	-4.4506
330.000000	98.681	-4.5686
335.000000	98.627	-4.7215
340.000000	98.555	-4.7227
345.000000	98.533	-4.6432
350.000000	98.469	-4.4772
355.000000	98.395	-4.6940
360.000000	98.375	-4.7833
365.000000	98.277	-4.8140
370.000000	98.247	-5.0305
375.000000	98.249	-4.8283
382.000000	98.133	-4.8664
387.000000	98.070	-4.7477
395.000000	97.997	-4.6730
400.000000	97.946	-4.4005
406.000000	97.924	-4.3049
412.000000	97.881	-4.0696
418.000000	97.864	-4.2178
425.000000	97.842	-4.2710
431.000000	97.785	-4.0978
437.000000	97.729	-4.2087
444.000000	97.703	-4.0579
450.000000	97.651	-4.0147
455.000000	97.606	-4.1964
462.000000	97.517	-4.0781
468.000000	97.488	-3.9029
475.000000	97.443	-3.8622
482.000000	97.375	-3.7369
487.000000	97.313	-3.6353
494.000000	97.268	-3.3706
500.000000	97.189	-3.2172
508.000000	97.138	-3.1626
515.000000	97.058	-3.0748
522.000000	97.021	-2.7405
530.000000	96.948	-2.4578
538.000000	96.880	-2.3027
545.000000	96.800	-1.8270
552.000000	96.756	-1.8299
560.000000	96.668	-1.5135
570.000000	96.617	-1.0020
580.000000	96.558	-0.7789
590.000000	96.444	-0.0558
600.000000	96.355	0.3016
608.000000	96.294	0.5281
615.000000	96.239	0.6819
622.000000	96.202	1.2477
630.000000	96.170	1.6512
640.000000	96.090	2.2864
650.000000	95.980	2.8267
660.000000	95.841	3.6302
670.000000	95.821	4.1637
680.000000	95.774	4.6161
690.000000	95.724	5.1904
700.000000	95.621	5.7728
710.000000	95.564	6.5559
720.000000	95.444	7.5251
730.000000	95.453	8.2957
740.000000	95.380	8.9425
750.000000	95.310	9.8328
762.000000	95.241	10.9784
775.000000	95.201	12.2825
788.000000	95.170	13.2672
800.000000	95.121	14.5048
812.000000	95.082	15.6034
825.000000	95.051	16.8461
838.000000	95.027	18.2397
850.000000	95.025	19.6568
862.000000	95.062	20.6791
875.000000	95.095	22.4507
885.000000	95.062	23.1945
900.000000	95.167	24.8715
912.000000	95.182	26.4511
925.000000	95.223	27.5674
938.000000	95.313	29.1086
950.000000	95.377	30.4727
962.000000	95.454	31.8209
975.000000	95.543	32.9078
988.000000	95.672	34.4802
1000.000000	95.774	35.4891
1015.000000	95.997	37.3617
1030.000000	96.123	39.4152
1044.000000	96.394	41.0955
1060.000000	96.715	42.1559
1075.000000	97.015	43.0346
1090.000000	97.362	43.9402
1106.000000	97.715	44.4387
1120.000000	97.980	44.3627
1138.000000	98.305	44.2030
1150.000000	98.526	43.8881
1172.000000	98.829	43.1165
1180.000000	98.954	42.7683
1206.000000	99.264	41.8382
1220.000000	99.403	41.4574
1241.000000	99.567	40.6664
1250.000000	99.605	40.2569
1265.000000	99.698	39.9719
1280.000000	99.769	39.4564
1315.000000	99.939	38.3819
1320.000000	99.967	38.5368
1340.000000	100.025	38.0512
1360.000000	100.086	37.8408
1380.000000	100.154	37.6790
1400.000000	100.225	37.3213
1430.000000	100.316	37.2062
1450.000000	100.372	37.1387
1475.000000	100.449	37.0905
1500.000000	100.500	37.0538
1525.000000	100.584	37.2426
1550.000000	100.659	37.3390
1575.000000	100.741	37.5475
1600.000000	100.828	37.5126
1625.000000	100.932	37.7131
1650.000000	101.023	37.9816
1675.000000	101.138	38.1470
1700.000000	101.233	38.4258
1725.000000	101.312	38.4685
1750.000000	101.448	38.6877
1775.000000	101.579	38.9327
1800.000000	101.683	38.9858
1825.000000	101.837	39.1672
1850.000000	101.968	39.2860
1875.000000	102.118	39.4265
1900.000000	102.256	39.5247
1925.000000	102.396	39.4208
1950.000000	102.563	39.6311
1975.000000	102.718	39.5647
2000.000000	102.880	39.3971
2030.000000	103.065	39.2487
2060.000000	103.283	39.0205
2090.000000	103.517	38.6849
2120.000000	103.714	38.3949
2140.000000	103.863	37.9352
2180.000000	104.148	37.2603
2200.000000	104.301	36.8733
2240.000000	104.604	35.8238
2270.000000	104.803	34.8113
2300.000000	105.022	33.9722
2330.000000	105.224	32.8206
2360.000000	105.415	31.5952
2400.000000	105.667	29.6207
2430.000000	105.840	28.1063
2470.000000	106.043	25.8051
2500.000000	106.169	24.0413
2540.000000	106.306	21.4941
2580.000000	106.399	18.8388
2620.000000	106.449	16.1693
2650.000000	106.449	14.1520
2690.000000	106.391	11.5139
2720.000000	106.350	9.5221
2760.000000	106.231	6.9626
2800.000000	106.062	4.6854
2850.000000	105.817	2.0778
2900.000000	105.530	-0.2607
2950.000000	105.224	-2.2349
3000.000000	104.918	-3.8567
3040.000000	104.637	-4.9559
3070.000000	104.409	-5.5351
3110.000000	104.141	-6.2234
3150.000000	103.872	-6.7739
3200.000000	103.563	-7.0746
3250.000000	103.237	-7.4135
3300.000000	102.937	-7.2603
3350.000000	102.647	-7.1406
3400.000000	102.376	-6.7167
3450.000000	102.140	-6.3235
3500.000000	101.898	-5.6800
3550.000000	101.702	-4.8332
3600.000000	101.522	-4.1262
3650.000000	101.325	-3.0535
3700.000000	101.178	-2.0558
3750.000000	101.012	-1.0765
3820.000000	100.901	0.5903
3870.000000	100.845	1.5914
3950.000000	100.751	3.5268
4000.000000	100.740	4.8271
4060.000000	100.739	6.2155
4120.000000	100.788	7.5900
4180.000000	100.815	8.8724
4250.000000	100.950	10.1026
4310.000000	101.093	11.4951
4370.000000	101.235	12.2937
4440.000000	101.507	13.4673
4500.000000	101.740	14.1676
4550.000000	101.964	14.7476
4620.000000	102.342	14.8956
4680.000000	102.728	14.8463
4750.000000	103.195	14.0890
4820.000000	103.698	12.5455
4870.000000	104.039	10.7506
4940.000000	104.527	7.4042
5000.000000	104.839	3.5201
5080.000000	104.968	-2.3830
5150.000000	104.819	-6.7166
5220.000000	104.717	-9.3439
5300.000000	104.919	-13.2659
5380.000000	105.006	-20.2000
5450.000000	104.729	-26.9672
5520.000000	104.107	-33.4484
5600.000000	103.172	-39.0074
5700.000000	101.869	-43.5490
5800.000000	100.524	-45.9001
5900.000000	99.283	-46.4912
6000.000000	98.145	-45.8680
6080.000000	97.289	-44.7906
6150.000000	96.603	-43.4737
6220.000000	95.992	-42.0472
6300.000000	95.333	-40.1194
6400.000000	94.582	-37.2166
6500.000000	93.906	-34.5487
6600.000000	93.230	-31.1259
6700.000000	92.675	-28.2691
6800.000000	92.089	-23.7246
6900.000000	91.600	-20.7598
7000.000000	91.195	-17.4147
7100.000000	90.851	-13.4047
7200.000000	90.526	-9.5591
7300.000000	90.221	-5.8931
7400.000000	90.076	-1.4148
7500.000000	89.851	3.3182
7620.000000	89.806	7.2870
7750.000000	89.753	12.0162
7880.000000	89.608	17.5095
8000.000000	89.838	22.9421
8120.000000	89.998	27.1628
8250.000000	90.360	31.0759
8380.000000	90.745	34.0124
8500.000000	91.109	38.3656
8620.000000	91.682	41.8265
8750.000000	92.442	45.4204
8850.000000	93.079	47.6744
9000.000000	94.547	49.2991
9120.000000	95.913	48.9635
9250.000000	97.699	44.2571
9380.000000	99.496	33.5966
9500.000000	100.562	16.9354
9620.000000	100.189	-2.8189
9750.000000	98.363	-19.2022
9880.000000	96.212	-27.3746
10000.000000	94.361	-30.9600
10150.000000	92.174	-31.4199
10300.000000	90.478	-29.9373
10440.000000	89.180	-26.6395
10600.000000	87.739	-24.4155
10750.000000	86.578	-18.9528
10900.000000	85.507	-15.4226
11060.000000	84.993	-11.4955
11200.000000	84.167	-6.8105
11380.000000	83.614	1.6292
11500.000000	83.132	4.6288
11720.000000	82.463	12.5361
11800.000000	82.607	15.3515
12060.000000	82.228	24.2776
12200.000000	82.491	26.2473
12410.000000	82.334	33.5200
12500.000000	82.457	36.6885
12650.000000	82.784	41.9865
12800.000000	83.249	44.0850
13150.000000	84.948	46.4503
13200.000000	85.414	47.7181
13400.000000	87.104	43.8454
13600.000000	88.963	32.9930
13800.000000	89.694	12.1110
14000.000000	88.152	-9.8207
14300.000000	84.214	-27.9495
14500.000000	81.616	-29.0403
14750.000000	78.618	-27.8208
15000.000000	77.011	-24.2248
15250.000000	74.939	-22.6133
15500.000000	73.852	-14.4580
15750.000000	70.573	-6.1660
16000.000000	70.089	-7.4110
16250.000000	68.560	21.3998
16500.000000	68.058	15.2912
16750.000000	68.753	18.8552
17000.000000	66.926	36.9421
17250.000000	70.146	46.6868
17500.000000	68.289	46.8371
17750.000000	69.001	42.8969
18000.000000	70.628	48.8914
18250.000000	72.934	44.3788
18500.000000	72.766	25.0633
18750.000000	64.224	44.5502
19000.000000	73.593	53.4609
19250.000000	75.784	30.3721
19500.000000	75.893	6.7082
19750.000000	74.659	-11.5700
