* Freq(Hz) SPL(dB) Phase(degrees)
20.000000 91.868 -7.8911
20.144928 91.865 -7.8821
20.290907 91.862 -7.8724
20.437943 91.860 -7.8620
20.586044 91.857 -7.8510
20.735220 91.854 -7.8392
20.885475 91.852 -7.8267
21.036819 91.849 -7.8135
21.189260 91.847 -7.7996
21.342806 91.845 -7.7848
21.497465 91.843 -7.7694
21.653244 91.842 -7.7532
21.810152 91.840 -7.7363
21.968197 91.839 -7.7187
22.127388 91.837 -7.7004
22.287733 91.836 -7.6815
22.449240 91.835 -7.6620
22.611916 91.835 -7.6419
22.775770 91.834 -7.6213
22.940813 91.834 -7.6001
23.107052 91.833 -7.5785
23.274494 91.833 -7.5566
23.443151 91.833 -7.5342
23.613029 91.833 -7.5115
23.784140 91.833 -7.4885
23.956490 91.833 -7.4652
24.130089 91.834 -7.4417
24.304945 91.834 -7.4180
24.481070 91.834 -7.3942
24.658470 91.835 -7.3702
24.837156 91.835 -7.3460
25.017136 91.836 -7.3219
25.198420 91.836 -7.2976
25.381018 91.836 -7.2734
25.564939 91.837 -7.2492
25.750193 91.837 -7.2250
25.936789 91.837 -7.2010
26.124737 91.837 -7.1772
26.314047 91.837 -7.1535
26.504730 91.837 -7.1302
26.696795 91.837 -7.1072
26.890251 91.837 -7.0847
27.085110 91.837 -7.0627
27.281380 91.837 -7.0413
27.479073 91.837 -7.0206
27.678198 91.837 -7.0007
27.878765 91.837 -6.9818
28.080786 91.836 -6.9638
28.284271 91.836 -6.9470
28.489231 91.836 -6.9314
28.695675 91.836 -6.9171
28.903616 91.835 -6.9042
29.113064 91.835 -6.8929
29.324030 91.835 -6.8831
29.536524 91.835 -6.8751
29.750557 91.835 -6.8689
29.966143 91.835 -6.8645
30.183290 91.835 -6.8622
30.402012 91.835 -6.8619
30.622318 91.835 -6.8637
30.844221 91.835 -6.8678
31.067732 91.835 -6.8742
31.292862 91.836 -6.8829
31.519623 91.836 -6.8942
31.748028 91.837 -6.9079
31.978086 91.837 -6.9243
32.209812 91.838 -6.9433
32.443218 91.839 -6.9651
32.678314 91.840 -6.9897
32.915115 91.841 -7.0171
33.153633 91.841 -7.0474
33.393879 91.842 -7.0806
33.635864 91.843 -7.1167
33.879604 91.844 -7.1558
34.125111 91.845 -7.1979
34.372395 91.846 -7.2428
34.621471 91.847 -7.2906
34.872353 91.847 -7.3413
35.125053 91.848 -7.3947
35.379585 91.848 -7.4508
35.635960 91.849 -7.5096
35.894192 91.849 -7.5708
36.154297 91.848 -7.6343
36.416286 91.848 -7.7002
36.680176 91.847 -7.7681
36.945976 91.846 -7.8380
37.213703 91.845 -7.9096
37.483368 91.843 -7.9829
37.754990 91.842 -8.0577
38.028580 91.840 -8.1337
38.304150 91.837 -8.2109
38.581718 91.834 -8.2890
38.861298 91.831 -8.3680
39.142902 91.828 -8.4475
39.426548 91.824 -8.5276
39.712250 91.820 -8.6079
40.000023 91.816 -8.6885
40.289879 91.811 -8.7691
40.581837 91.806 -8.8496
40.875908 91.801 -8.9299
41.172112 91.795 -9.0099
41.470463 91.790 -9.0895
41.770973 91.784 -9.1687
42.073662 91.778 -9.2473
42.378544 91.771 -9.3254
42.685635 91.765 -9.4029
42.994953 91.758 -9.4798
43.306511 91.751 -9.5560
43.620327 91.744 -9.6315
43.936417 91.737 -9.7065
44.254799 91.730 -9.7808
44.575489 91.723 -9.8545
44.898502 91.715 -9.9277
45.223854 91.708 -10.0004
45.551563 91.700 -10.0727
45.881649 91.693 -10.1445
46.214127 91.685 -10.2160
46.549015 91.678 -10.2873
46.886330 91.670 -10.3583
47.226086 91.662 -10.4292
47.568306 91.655 -10.5000
47.913006 91.647 -10.5708
48.260204 91.639 -10.6417
48.609917 91.632 -10.7127
48.962166 91.624 -10.7838
49.316967 91.616 -10.8553
49.674339 91.608 -10.9270
50.034302 91.600 -10.9991
50.396870 91.592 -11.0717
50.762066 91.584 -11.1447
51.129910 91.576 -11.2183
51.500420 91.568 -11.2924
51.873611 91.560 -11.3674
52.249508 91.552 -11.4428
52.628128 91.544 -11.5190
53.009495 91.535 -11.5961
53.393623 91.527 -11.6739
53.780537 91.518 -11.7525
54.170254 91.509 -11.8319
54.562794 91.500 -11.9123
54.958179 91.491 -11.9934
55.356430 91.482 -12.0755
55.757565 91.473 -12.1584
56.161606 91.463 -12.2421
56.568577 91.453 -12.3267
56.978497 91.443 -12.4120
57.391388 91.433 -12.4981
57.807270 91.422 -12.5849
58.226166 91.411 -12.6724
58.648098 91.400 -12.7604
59.073086 91.388 -12.8489
59.501152 91.377 -12.9378
59.932323 91.364 -13.0270
60.366619 91.352 -13.1164
60.804062 91.339 -13.2059
61.244675 91.326 -13.2955
61.688480 91.312 -13.3848
62.135502 91.298 -13.4739
62.585762 91.283 -13.5626
63.039284 91.269 -13.6508
63.496094 91.253 -13.7384
63.956211 91.238 -13.8252
64.419662 91.222 -13.9110
64.886475 91.205 -13.9959
65.356667 91.188 -14.0796
65.830269 91.171 -14.1620
66.307304 91.154 -14.2430
66.787796 91.136 -14.3224
67.271767 91.117 -14.4003
67.759247 91.099 -14.4764
68.250259 91.080 -14.5507
68.744827 91.061 -14.6230
69.242981 91.041 -14.6933
69.744743 91.021 -14.7616
70.250145 91.001 -14.8276
70.759209 90.980 -14.8915
71.271957 90.960 -14.9531
71.788422 90.939 -15.0123
72.308632 90.918 -15.0694
72.832611 90.896 -15.1239
73.360390 90.875 -15.1762
73.891991 90.854 -15.2260
74.427444 90.832 -15.2735
74.966774 90.810 -15.3187
75.510017 90.788 -15.3617
76.057198 90.766 -15.4024
76.608337 90.744 -15.4409
77.163475 90.722 -15.4774
77.722633 90.700 -15.5118
78.285843 90.679 -15.5443
78.853134 90.657 -15.5750
79.424538 90.635 -15.6039
80.000084 90.613 -15.6312
80.579796 90.591 -15.6569
81.163712 90.570 -15.6813
81.751854 90.548 -15.7043
82.344261 90.526 -15.7262
82.940964 90.505 -15.7470
83.541985 90.484 -15.7669
84.147362 90.462 -15.7860
84.757126 90.441 -15.8044
85.371307 90.420 -15.8223
85.989944 90.399 -15.8396
86.613060 90.378 -15.8566
87.240692 90.357 -15.8732
87.872871 90.336 -15.8896
88.509636 90.315 -15.9058
89.151016 90.294 -15.9219
89.797043 90.273 -15.9379
90.447746 90.252 -15.9537
91.103165 90.231 -15.9694
91.763336 90.210 -15.9850
92.428291 90.188 -16.0004
93.098068 90.167 -16.0155
93.772697 90.145 -16.0302
94.452209 90.123 -16.0445
95.136650 90.101 -16.0583
95.826050 90.078 -16.0713
96.520447 90.055 -16.0835
97.219872 90.032 -16.0948
97.924370 90.009 -16.1049
98.633972 89.986 -16.1138
99.348717 89.962 -16.1212
100.068642 89.938 -16.1269
100.793777 89.913 -16.1309
101.524170 89.888 -16.1329
102.259857 89.863 -16.1329
103.000877 89.838 -16.1305
103.747261 89.813 -16.1257
104.499054 89.787 -16.1184
105.256294 89.761 -16.1084
106.019028 89.734 -16.0955
106.787285 89.708 -16.0797
107.561111 89.681 -16.0608
108.340546 89.654 -16.0388
109.125626 89.627 -16.0136
109.916397 89.599 -15.9851
110.712898 89.572 -15.9532
111.515167 89.545 -15.9179
112.323250 89.517 -15.8791
113.137192 89.490 -15.8370
113.957031 89.462 -15.7913
114.782814 89.434 -15.7421
115.614578 89.407 -15.6894
116.452370 89.379 -15.6333
117.296234 89.352 -15.5737
118.146210 89.325 -15.5109
119.002342 89.298 -15.4447
119.864685 89.271 -15.3753
120.733276 89.244 -15.3028
121.608162 89.217 -15.2273
122.489388 89.191 -15.1489
123.376999 89.165 -15.0676
124.271042 89.139 -14.9837
125.171562 89.114 -14.8973
126.078606 89.089 -14.8085
126.992226 89.064 -14.7174
127.912460 89.039 -14.6243
128.839371 89.015 -14.5292
129.772995 88.991 -14.4323
130.713379 88.968 -14.3339
131.660583 88.945 -14.2339
132.614655 88.922 -14.1327
133.575638 88.900 -14.0302
134.543579 88.878 -13.9268
135.518539 88.856 -13.8224
136.500565 88.835 -13.7173
137.489700 88.814 -13.6115
138.486008 88.793 -13.5052
139.489532 88.773 -13.3983
140.500336 88.753 -13.2911
141.518463 88.733 -13.1835
142.543961 88.713 -13.0756
143.576889 88.694 -12.9674
144.617310 88.674 -12.8589
145.665268 88.655 -12.7502
146.720825 88.636 -12.6412
147.784027 88.618 -12.5319
148.854935 88.599 -12.4223
149.933594 88.580 -12.3123
151.020081 88.562 -12.2019
152.114441 88.543 -12.0910
153.216721 88.525 -11.9795
154.326996 88.506 -11.8674
155.445312 88.488 -11.7546
156.571732 88.469 -11.6410
157.706314 88.451 -11.5265
158.849121 88.432 -11.4109
160.000214 88.414 -11.2943
161.159637 88.396 -11.1765
162.327469 88.377 -11.0574
163.503754 88.359 -10.9368
164.688568 88.340 -10.8148
165.881973 88.321 -10.6911
167.084015 88.303 -10.5657
168.294769 88.284 -10.4386
169.514297 88.266 -10.3095
170.742661 88.247 -10.1784
171.979935 88.228 -10.0452
173.226166 88.210 -9.9099
174.481430 88.191 -9.7723
175.745789 88.173 -9.6325
177.019318 88.154 -9.4903
178.302078 88.136 -9.3457
179.594131 88.118 -9.1987
180.895538 88.100 -9.0493
182.206375 88.082 -8.8973
183.526718 88.064 -8.7430
184.856628 88.047 -8.5861
186.196182 88.029 -8.4269
187.545441 88.012 -8.2652
188.904465 87.996 -8.1011
190.273346 87.979 -7.9346
191.652145 87.963 -7.7659
193.040939 87.948 -7.5949
194.439789 87.933 -7.4219
195.848785 87.918 -7.2468
197.267990 87.904 -7.0697
198.697479 87.890 -6.8908
200.137329 87.877 -6.7101
201.587601 87.864 -6.5278
203.048386 87.852 -6.3440
204.519760 87.841 -6.1587
206.001801 87.830 -5.9722
207.494568 87.820 -5.7845
208.998154 87.810 -5.5958
210.512634 87.802 -5.4062
212.038101 87.794 -5.2158
213.574615 87.787 -5.0246
215.122269 87.780 -4.8329
216.681137 87.775 -4.6408
218.251297 87.770 -4.4483
219.832840 87.766 -4.2555
221.425842 87.763 -4.0626
223.030380 87.761 -3.8697
224.646545 87.759 -3.6768
226.274429 87.759 -3.4841
227.914108 87.759 -3.2916
229.565674 87.760 -3.0995
231.229202 87.762 -2.9078
232.904785 87.765 -2.7166
234.592514 87.769 -2.5261
236.292465 87.773 -2.3363
238.004730 87.778 -2.1473
239.729416 87.784 -1.9593
241.466599 87.791 -1.7723
243.216370 87.799 -1.5866
244.978821 87.808 -1.4020
246.754044 87.817 -1.2189
248.542130 87.827 -1.0373
250.343170 87.837 -0.8573
252.157257 87.849 -0.6791
253.984497 87.861 -0.5027
255.824966 87.873 -0.3283
257.678772 87.887 -0.1561
259.546021 87.901 0.0140
261.426788 87.915 0.1817
263.321198 87.930 0.3469
265.229340 87.945 0.5096
267.151306 87.961 0.6695
269.087189 87.978 0.8267
271.037109 87.995 0.9810
273.001160 88.012 1.1322
274.979431 88.030 1.2803
276.972046 88.048 1.4252
278.979095 88.066 1.5667
281.000702 88.085 1.7048
283.036957 88.104 1.8394
285.087952 88.123 1.9703
287.153809 88.142 2.0975
289.234650 88.162 2.2209
291.330566 88.182 2.3403
293.441681 88.202 2.4558
295.568085 88.222 2.5673
297.709900 88.242 2.6747
299.867218 88.263 2.7779
302.040192 88.283 2.8770
304.228912 88.303 2.9719
306.433472 88.324 3.0626
308.654022 88.344 3.1492
310.890656 88.364 3.2316
313.143494 88.384 3.3100
315.412659 88.404 3.3844
317.698273 88.424 3.4548
320.000458 88.443 3.5213
322.319305 88.462 3.5842
324.654968 88.481 3.6434
327.007538 88.500 3.6992
329.377167 88.518 3.7517
331.763977 88.536 3.8010
334.168091 88.554 3.8474
336.589600 88.571 3.8911
339.028656 88.588 3.9322
341.485413 88.604 3.9709
343.959961 88.621 4.0074
346.452423 88.636 4.0419
348.962952 88.652 4.0746
351.491669 88.667 4.1058
354.038727 88.681 4.1355
356.604248 88.696 4.1639
359.188354 88.710 4.1913
361.791168 88.723 4.2178
364.412842 88.737 4.2435
367.053528 88.750 4.2687
369.713348 88.762 4.2934
372.392456 88.775 4.3177
375.090973 88.787 4.3419
377.809052 88.799 4.3659
380.546814 88.810 4.3899
383.304413 88.822 4.4140
386.082001 88.833 4.4382
388.879700 88.844 4.4627
391.697693 88.855 4.4874
394.536102 88.866 4.5124
397.395081 88.876 4.5377
400.274780 88.887 4.5634
403.175323 88.897 4.5894
406.096893 88.908 4.6157
409.039642 88.918 4.6423
412.003723 88.929 4.6693
414.989258 88.939 4.6965
417.996429 88.950 4.7238
421.025391 88.960 4.7514
424.076324 88.971 4.7790
427.149353 88.981 4.8066
430.244659 88.992 4.8341
433.362396 89.002 4.8616
436.502716 89.013 4.8888
439.665802 89.024 4.9158
442.851807 89.034 4.9424
446.060883 89.045 4.9687
449.293213 89.056 4.9944
452.548981 89.067 5.0196
455.828339 89.078 5.0442
459.131470 89.089 5.0681
462.458527 89.100 5.0914
465.809692 89.111 5.1140
469.185150 89.122 5.1358
472.585052 89.133 5.1568
476.009613 89.144 5.1770
479.458984 89.155 5.1964
482.933350 89.166 5.2150
486.432892 89.177 5.2329
489.957794 89.188 5.2500
493.508240 89.199 5.2664
497.084412 89.210 5.2821
500.686493 89.220 5.2972
504.314667 89.231 5.3116
507.969147 89.242 5.3255
511.650085 89.252 5.3389
515.357727 89.263 5.3518
519.092224 89.273 5.3643
522.853760 89.283 5.3764
526.642578 89.293 5.3883
530.458862 89.303 5.3999
534.302795 89.314 5.4113
538.174561 89.323 5.4226
542.074402 89.333 5.4339
546.002502 89.343 5.4451
549.959045 89.353 5.4564
553.944275 89.362 5.4677
557.958374 89.372 5.4792
562.001587 89.382 5.4910
566.074097 89.391 5.5029
570.176086 89.401 5.5152
574.307800 89.410 5.5278
578.469482 89.419 5.5408
582.661316 89.429 5.5543
586.883545 89.438 5.5683
591.136353 89.448 5.5827
595.419983 89.457 5.5978
599.734619 89.467 5.6134
604.080566 89.476 5.6296
608.458008 89.486 5.6465
612.867126 89.496 5.6640
617.308228 89.505 5.6822
621.781494 89.515 5.7010
626.287170 89.525 5.7205
630.825500 89.535 5.7407
635.396729 89.546 5.7613
640.001099 89.556 5.7826
644.638794 89.567 5.8045
649.310120 89.578 5.8268
654.015259 89.589 5.8496
658.754517 89.601 5.8727
663.528137 89.612 5.8961
668.336365 89.624 5.9197
673.179382 89.636 5.9434
678.057495 89.649 5.9671
682.971008 89.662 5.9907
687.920105 89.675 6.0142
692.905029 89.688 6.0373
697.926086 89.702 6.0600
702.983521 89.716 6.0822
708.077637 89.730 6.1038
713.208679 89.744 6.1246
718.376892 89.759 6.1446
723.582520 89.774 6.1639
728.825867 89.789 6.1820
734.107239 89.804 6.1990
739.426880 89.819 6.2150
744.785095 89.835 6.2297
750.182129 89.851 6.2432
755.618286 89.866 6.2554
761.093811 89.882 6.2663
766.609009 89.898 6.2760
772.164185 89.913 6.2843
777.759583 89.929 6.2914
783.395569 89.944 6.2973
789.072388 89.959 6.3021
794.790344 89.975 6.3057
800.549744 89.989 6.3084
806.350830 90.004 6.3102
812.193970 90.018 6.3112
818.079468 90.032 6.3115
824.007629 90.045 6.3114
829.978699 90.058 6.3109
835.993042 90.071 6.3102
842.050964 90.083 6.3094
848.152832 90.095 6.3088
854.298889 90.106 6.3084
860.489502 90.117 6.3086
866.724976 90.128 6.3094
873.005615 90.138 6.3110
879.331787 90.147 6.3137
885.703796 90.157 6.3174
892.121948 90.166 6.3226
898.586609 90.174 6.3292
905.098145 90.183 6.3374
911.656860 90.191 6.3475
918.263123 90.199 6.3594
924.917236 90.207 6.3734
931.619568 90.215 6.3895
938.370483 90.222 6.4078
945.170288 90.230 6.4285
952.019409 90.238 6.4517
958.918152 90.246 6.4774
965.866882 90.253 6.5057
972.865967 90.262 6.5366
979.915771 90.270 6.5702
987.016663 90.278 6.6065
994.169006 90.287 6.6456
1001.373169 90.296 6.6874
1008.629517 90.306 6.7319
1015.938477 90.316 6.7792
1023.300415 90.326 6.8292
1030.715698 90.337 6.8818
1038.184692 90.348 6.9370
1045.707764 90.360 6.9949
1053.285400 90.373 7.0552
1060.917969 90.386 7.1178
1068.605835 90.400 7.1828
1076.349365 90.415 7.2498
1084.149048 90.431 7.3189
1092.005249 90.447 7.3898
1099.918335 90.465 7.4624
1107.888794 90.483 7.5364
1115.916992 90.503 7.6117
1124.003418 90.523 7.6881
1132.148438 90.544 7.7653
1140.352417 90.567 7.8431
1148.615845 90.591 7.9214
1156.939209 90.616 7.9997
1165.322876 90.642 8.0780
1173.767334 90.670 8.1559
1182.272949 90.699 8.2332
1190.840210 90.729 8.3097
1199.469482 90.761 8.3850
1208.161377 90.794 8.4590
1216.916260 90.828 8.5314
1225.734497 90.864 8.6020
1234.616699 90.901 8.6706
1243.563232 90.940 8.7368
1252.574585 90.980 8.8005
1261.651245 91.021 8.8615
1270.793701 91.064 8.9196
1280.002441 91.108 8.9746
1289.277832 91.153 9.0263
1298.620483 91.200 9.0744
1308.030762 91.248 9.1189
1317.509277 91.297 9.1595
1327.056519 91.347 9.1961
1336.672974 91.398 9.2286
1346.359009 91.450 9.2568
1356.115234 91.504 9.2805
1365.942261 91.558 9.2998
1375.840454 91.613 9.3145
1385.810303 91.669 9.3243
1395.852417 91.725 9.3294
1405.967285 91.783 9.3294
1416.155518 91.841 9.3245
1426.417603 91.900 9.3145
1436.754028 91.959 9.2994
1447.165283 92.020 9.2791
1457.652100 92.081 9.2534
1468.214844 92.142 9.2224
1478.854126 92.204 9.1861
1489.570557 92.266 9.1443
1500.364624 92.329 9.0972
1511.236938 92.393 9.0445
1522.187988 92.457 8.9863
1533.218384 92.521 8.9224
1544.328735 92.586 8.8530
1555.519531 92.651 8.7779
1566.791504 92.717 8.6972
1578.145142 92.783 8.6106
1589.581055 92.849 8.5182
1601.099854 92.916 8.4200
1612.702026 92.982 8.3157
1624.388306 93.050 8.2056
1636.159302 93.117 8.0891
1648.015625 93.185 7.9664
1659.957886 93.252 7.8373
1671.986572 93.320 7.7017
1684.102417 93.389 7.5595
1696.306152 93.457 7.4103
1708.598267 93.526 7.2540
1720.979492 93.595 7.0904
1733.450439 93.664 6.9194
1746.011719 93.734 6.7406
1758.664062 93.804 6.5537
1771.408081 93.875 6.3584
1784.244385 93.946 6.1547
1797.173706 94.018 5.9419
1810.196777 94.090 5.7199
1823.314209 94.164 5.4883
1836.526733 94.239 5.2468
1849.834961 94.315 4.9948
1863.239624 94.392 4.7322
1876.741455 94.472 4.4583
1890.341064 94.553 4.1729
1904.039307 94.637 3.8756
1917.836792 94.723 3.5658
1931.734253 94.812 3.2432
1945.732422 94.904 2.9072
1959.832031 94.999 2.5573
1974.033813 95.098 2.1933
1988.338501 95.200 1.8145
2002.746826 95.306 1.4205
2017.259521 95.415 1.0108
2031.877441 95.528 0.5849
2046.601318 95.644 0.1425
2061.431885 95.764 -0.3171
2076.369873 95.887 -0.7941
2091.416016 96.012 -1.2891
2106.571289 96.140 -1.8024
2121.836426 96.269 -2.3343
2137.212158 96.400 -2.8853
2152.699219 96.532 -3.4556
2168.298584 96.664 -4.0453
2184.010986 96.796 -4.6548
2199.837158 96.928 -5.2842
2215.778076 97.057 -5.9335
2231.834473 97.185 -6.6028
2248.007324 97.311 -7.2920
2264.297363 97.433 -8.0010
2280.705322 97.553 -8.7296
2297.232178 97.669 -9.4777
2313.878906 97.781 -10.2447
2330.646240 97.889 -11.0305
2347.535156 97.992 -11.8346
2364.546387 98.091 -12.6567
2381.680908 98.186 -13.4960
2398.939453 98.276 -14.3521
2416.323242 98.362 -15.2247
2433.833008 98.443 -16.1129
2451.469482 98.520 -17.0162
2469.233887 98.594 -17.9340
2487.126953 98.663 -18.8659
2505.149658 98.729 -19.8111
2523.302979 98.792 -20.7691
2541.587891 98.851 -21.7394
2560.005371 98.907 -22.7215
2578.556152 98.961 -23.7148
2597.241455 99.012 -24.7190
2616.062256 99.061 -25.7334
2635.019287 99.108 -26.7577
2654.113770 99.153 -27.7915
2673.346680 99.196 -28.8345
2692.718750 99.237 -29.8861
2712.231201 99.276 -30.9462
2731.885254 99.313 -32.0143
2751.681641 99.349 -33.0900
2771.621582 99.383 -34.1732
2791.705811 99.416 -35.2633
2811.935547 99.447 -36.3601
2832.312012 99.476 -37.4634
2852.836182 99.503 -38.5726
2873.509033 99.528 -39.6874
2894.331543 99.551 -40.8073
2915.305176 99.572 -41.9322
2936.430664 99.591 -43.0615
2957.709229 99.608 -44.1949
2979.142090 99.622 -45.3318
3000.730225 99.633 -46.4718
3022.474854 99.642 -47.6145
3044.376953 99.648 -48.7594
3066.437744 99.651 -49.9059
3088.658447 99.650 -51.0537
3111.040039 99.647 -52.2021
3133.583984 99.640 -53.3508
3156.291260 99.630 -54.4994
3179.163086 99.617 -55.6471
3202.200684 99.601 -56.7937
3225.405029 99.581 -57.9385
3248.777588 99.558 -59.0812
3272.319580 99.532 -60.2214
3296.032227 99.502 -61.3586
3319.916748 99.470 -62.4923
3343.974121 99.435 -63.6222
3368.206055 99.397 -64.7479
3392.613525 99.356 -65.8692
3417.197754 99.312 -66.9854
3441.960205 99.266 -68.0964
3466.902100 99.218 -69.2017
3492.024658 99.168 -70.3013
3517.329346 99.115 -71.3947
3542.817383 99.061 -72.4819
3568.489990 99.004 -73.5625
3594.348633 98.946 -74.6364
3620.394775 98.886 -75.7033
3646.629639 98.824 -76.7632
3673.054688 98.761 -77.8158
3699.671143 98.697 -78.8613
3726.480469 98.631 -79.8992
3753.484131 98.564 -80.9297
3780.683350 98.496 -81.9527
3808.079834 98.427 -82.9684
3835.674805 98.357 -83.9764
3863.469727 98.285 -84.9769
3891.466064 98.213 -85.9701
3919.665283 98.140 -86.9558
3948.068848 98.066 -87.9342
3976.678223 97.991 -88.9054
4005.494873 97.916 -89.8694
4034.520264 97.840 -90.8264
4063.756104 97.763 -91.7766
4093.203857 97.686 -92.7200
4122.864746 97.608 -93.6567
4152.740723 97.530 -94.5870
4182.833008 97.451 -95.5110
4213.143555 97.372 -96.4290
4243.673828 97.293 -97.3411
4274.425293 97.213 -98.2475
4305.399414 97.134 -99.1483
4336.598145 97.054 -100.0439
4368.022949 96.974 -100.9345
4399.675293 96.895 -101.8203
4431.557129 96.816 -102.7015
4463.669922 96.737 -103.5784
4496.015625 96.659 -104.4513
4528.595703 96.581 -105.3204
4561.411621 96.505 -106.1860
4594.465332 96.428 -107.0484
4627.758789 96.353 -107.9080
4661.293457 96.279 -108.7649
4695.071289 96.205 -109.6194
4729.093750 96.133 -110.4719
4763.362793 96.062 -111.3225
4797.879883 95.992 -112.1719
4832.647461 95.923 -113.0202
4867.666992 95.856 -113.8677
4902.939941 95.789 -114.7147
4938.468750 95.724 -115.5617
4974.254883 95.660 -116.4089
5010.300293 95.597 -117.2566
5046.606934 95.535 -118.1053
5083.176758 95.474 -118.9552
5120.011719 95.414 -119.8067
5157.113281 95.355 -120.6602
5194.483887 95.297 -121.5158
5232.125488 95.240 -122.3743
5270.039551 95.183 -123.2355
5308.228516 95.126 -124.1002
5346.694336 95.071 -124.9684
5385.438477 95.016 -125.8407
5424.463379 94.961 -126.7173
5463.771484 94.906 -127.5983
5503.364258 94.852 -128.4845
5543.244141 94.798 -129.3759
5583.412598 94.744 -130.2727
5623.872070 94.691 -131.1752
5664.625000 94.637 -132.0839
5705.673340 94.583 -132.9988
5747.019043 94.529 -133.9201
5788.664551 94.476 -134.8479
5830.611816 94.421 -135.7826
5872.862793 94.367 -136.7242
5915.419922 94.312 -137.6728
5958.285645 94.257 -138.6284
6001.461914 94.202 -139.5912
6044.951172 94.146 -140.5612
6088.755371 94.089 -141.5384
6132.876953 94.032 -142.5226
6177.318359 93.974 -143.5140
6222.081543 93.916 -144.5124
6267.169434 93.856 -145.5177
6312.583984 93.796 -146.5299
6358.327637 93.736 -147.5489
6404.402832 93.674 -148.5744
6450.812012 93.612 -149.6062
6497.557129 93.548 -150.6442
6544.641113 93.484 -151.6885
6592.066406 93.419 -152.7385
6639.835449 93.352 -153.7943
6687.950195 93.285 -154.8555
6736.414062 93.216 -155.9221
6785.229004 93.147 -156.9938
6834.397461 93.077 -158.0703
6883.922363 93.005 -159.1515
6933.806152 92.932 -160.2373
6984.051270 92.858 -161.3274
7034.660645 92.784 -162.4217
7085.636719 92.708 -163.5200
7136.981934 92.631 -164.6222
7188.699219 92.552 -165.7282
7240.791504 92.473 -166.8379
7293.261230 92.393 -167.9512
7346.111328 92.312 -169.0680
7399.344238 92.229 -170.1882
7452.962891 92.146 -171.3118
7506.970215 92.062 -172.4389
7561.368652 91.977 -173.5693
7616.161621 91.890 -174.7032
7671.351562 91.803 -175.8404
7726.941406 91.715 -176.9810
7782.934082 91.626 -178.1250
7839.332520 91.536 -179.2727
7896.139648 91.445 179.5760
7953.358398 91.354 178.4210
8010.991699 91.261 177.2624
8069.042480 91.168 176.0998
8127.514160 91.074 174.9332
8186.409668 90.979 173.7626
8245.731445 90.883 172.5878
8305.483398 90.787 171.4088
8365.667969 90.690 170.2253
8426.289062 90.592 169.0376
8487.349609 90.493 167.8451
8548.852539 90.394 166.6479
8610.800781 90.294 165.4460
8673.198242 90.193 164.2393
8736.047852 90.092 163.0275
8799.352539 89.990 161.8109
8863.116211 89.887 160.5891
8927.341797 89.784 159.3623
8992.033203 89.680 158.1302
9057.193359 89.575 156.8931
9122.825195 89.470 155.6507
9188.932617 89.364 154.4033
9255.519531 89.257 153.1508
9322.588867 89.149 151.8932
9390.144531 89.041 150.6306
9458.189453 88.932 149.3633
9526.727539 88.822 148.0911
9595.761719 88.712 146.8145
9665.296875 88.601 145.5334
9735.335938 88.489 144.2481
9805.881836 88.377 142.9586
9876.939453 88.263 141.6652
9948.511719 88.149 140.3682
10020.602539 88.033 139.0677
10093.215820 87.917 137.7640
10166.355469 87.800 136.4572
10240.025391 87.682 135.1474
10314.228516 87.563 133.8350
10388.969727 87.444 132.5198
10464.252930 87.323 131.2022
10540.081055 87.202 129.8822
10616.458984 87.080 128.5597
10693.390625 86.957 127.2348
10770.878906 86.834 125.9075
10848.928711 86.710 124.5775
10927.544922 86.585 123.2446
11006.730469 86.460 121.9087
11086.490234 86.334 120.5693
11166.827148 86.208 119.2261
11247.746094 86.081 117.8788
11329.251953 85.955 116.5264
11411.348633 85.828 115.1686
11494.040039 85.700 113.8046
11577.331055 85.573 112.4337
11661.225586 85.446 111.0548
11745.727539 85.319 109.6672
11830.841797 85.192 108.2700
11916.573242 85.066 106.8619
12002.925781 84.940 105.4421
12089.904297 84.814 104.0093
12177.512695 84.689 102.5626
12265.755859 84.564 101.1004
12354.638672 84.440 99.6218
12444.165039 84.316 98.1256
12534.340820 84.193 96.6109
12625.169922 84.070 95.0764
12716.657227 83.948 93.5212
12808.807617 83.826 91.9444
12901.625977 83.704 90.3450
12995.116211 83.583 88.7223
13089.284180 83.462 87.0755
13184.134766 83.341 85.4042
13279.672852 83.220 83.7077
13375.903320 83.099 81.9857
13472.831055 82.977 80.2381
13570.460938 82.855 78.4644
13668.797852 82.732 76.6648
13767.847656 82.608 74.8393
13867.615234 82.483 72.9882
13968.105469 82.357 71.1115
14069.324219 82.229 69.2096
14171.276367 82.100 67.2832
14273.966797 81.969 65.3327
14377.401367 81.836 63.3586
14481.585938 81.701 61.3618
14586.525391 81.564 59.3430
14692.225586 81.424 57.3026
14798.691406 81.282 55.2418
14905.928711 81.137 53.1615
15013.943359 80.989 51.0623
15122.740234 80.838 48.9452
15232.326172 80.684 46.8109
15342.706055 80.527 44.6607
15453.885742 80.366 42.4950
15565.871094 80.203 40.3151
15678.667969 80.036 38.1217
15792.282227 79.866 35.9155
15906.719727 79.692 33.6976
16021.986328 79.515 31.4686
16138.087891 79.334 29.2298
16255.031250 79.150 26.9818
16372.822266 78.963 24.7255
16491.466797 78.772 22.4620
16610.970703 78.577 20.1927
16731.339844 78.379 17.9183
16852.582031 78.178 15.6404
16974.703125 77.973 13.3603
17097.708984 77.765 11.0796
17221.605469 77.553 8.8002
17346.400391 77.338 6.5240
17472.099609 77.119 4.2535
17598.708984 76.897 1.9911
17726.236328 76.671 -0.2605
17854.687500 76.442 -2.4980
17984.070312 76.209 -4.7184
18114.390625 75.973 -6.9175
18245.654297 75.733 -9.0919
18377.869141 75.489 -11.2369
18511.042969 75.241 -13.3479
18645.181641 74.989 -15.4198
18780.292969 74.733 -17.4482
18916.382812 74.473 -19.4273
19053.458984 74.209 -21.3517
19191.527344 73.940 -23.2157
19330.597656 73.666 -25.0140
19470.675781 73.388 -26.7408
19611.767578 73.105 -28.3909
19753.882812 72.818 -29.9586
19897.027344 72.525 -31.4393
20041.208984 0.000 -32.8281
