* Measurement data measured by REW V5.31.1
* Source: Frequency response averaged data
* Format: Averaged data produced from the rms magnitudes of R 894, R 895, R 896, R 897
* Dated: 6/08/2025 01:05:16 AM
* REW Settings:
*  C-weighting compensation: Off
*  Target level: 75.0 dB
* Note: Averaged data produced from the rms magnitudes of R 894, R 895, R 896, R 897
* Measurement: R C1 AVG 100 T
* Smoothing: None
* Frequency Step: 1/48 octave
* Start Frequency: 20.000 Hz
*
* Freq(Hz)	SPL(dB)
20.000000	83.839
20.299999	84.016
20.600000	84.198
20.900000	84.373
21.200001	84.534
21.400000	84.633
21.799999	84.812
22.000000	84.896
22.400000	85.065
22.700001	85.199
23.000000	85.344
23.299999	85.497
23.600000	85.653
24.000000	85.852
24.299999	85.989
24.700001	86.153
25.000000	86.268
25.400000	86.424
25.799999	86.594
26.200001	86.776
26.500000	86.912
26.900000	87.082
27.200001	87.196
27.600000	87.337
28.000000	87.480
28.500000	87.681
29.000000	87.897
29.500000	88.103
30.000000	88.284
30.400000	88.421
30.700001	88.527
31.100000	88.678
31.500000	88.835
32.000000	89.028
32.500000	89.202
33.000000	89.361
33.500000	89.515
34.000000	89.673
34.500000	89.836
35.000000	90.003
35.500000	90.170
36.000000	90.331
36.500000	90.484
37.000000	90.628
37.500000	90.773
38.200001	90.990
38.700001	91.155
39.500000	91.409
40.000000	91.554
40.599998	91.723
41.200001	91.898
41.799999	92.069
42.500000	92.252
43.099998	92.406
43.700001	92.568
44.400002	92.756
45.000000	92.906
45.500000	93.021
46.200001	93.174
46.799999	93.299
47.500000	93.455
48.200001	93.631
48.700001	93.754
49.400002	93.903
50.000000	94.022
50.799999	94.191
51.500000	94.336
52.200001	94.462
53.000000	94.605
53.799999	94.753
54.500000	94.865
55.200001	94.964
56.000000	95.086
57.000000	95.236
58.000000	95.357
59.000000	95.477
60.000000	95.602
60.799999	95.717
61.500000	95.826
62.200001	95.920
63.000000	96.000
64.000000	96.101
65.000000	96.203
66.000000	96.257
67.000000	96.290
68.000000	96.315
69.000000	96.291
70.000000	96.260
71.000000	96.234
72.000000	96.181
73.000000	96.152
74.000000	96.117
75.000000	96.095
76.199997	96.121
77.500000	96.166
78.800003	96.224
80.000000	96.241
81.199997	96.265
82.500000	96.275
83.800003	96.258
85.000000	96.219
86.199997	96.212
87.500000	96.195
88.500000	96.188
90.000000	96.216
91.199997	96.227
92.500000	96.219
93.800003	96.207
95.000000	96.187
96.199997	96.159
97.500000	96.125
98.800003	96.087
100.000000	96.050
101.500000	96.018
103.000000	95.974
104.400002	95.939
106.000000	95.892
107.500000	95.848
109.000000	95.812
110.599998	95.775
112.000000	95.735
113.800003	95.691
115.000000	95.642
117.199997	95.584
118.000000	95.566
120.599998	95.496
122.000000	95.476
124.099998	95.445
125.000000	95.407
126.500000	95.383
128.000000	95.348
131.500000	95.233
132.000000	95.209
134.000000	95.161
136.000000	95.132
138.000000	95.103
140.000000	95.055
143.000000	95.017
145.000000	94.978
147.500000	94.914
150.000000	94.886
152.500000	94.835
155.000000	94.784
157.500000	94.748
160.000000	94.707
162.500000	94.661
165.000000	94.579
167.500000	94.566
170.000000	94.513
172.500000	94.487
175.000000	94.437
177.500000	94.395
180.000000	94.354
182.500000	94.302
185.000000	94.276
187.500000	94.227
190.000000	94.199
192.500000	94.156
195.000000	94.114
197.500000	94.084
200.000000	94.055
203.000000	93.990
206.000000	93.935
209.000000	93.902
212.000000	93.831
214.000000	93.788
218.000000	93.692
220.000000	93.657
224.000000	93.535
227.000000	93.471
230.000000	93.430
233.000000	93.384
236.000000	93.331
240.000000	93.307
243.000000	93.275
247.000000	93.257
250.000000	93.237
254.000000	93.241
258.000000	93.237
262.000000	93.276
265.000000	93.297
269.000000	93.363
272.000000	93.405
276.000000	93.499
280.000000	93.623
285.000000	93.769
290.000000	93.894
295.000000	94.005
300.000000	94.077
304.000000	94.104
307.000000	94.114
311.000000	94.076
315.000000	94.057
320.000000	94.022
325.000000	93.971
330.000000	93.926
335.000000	93.813
340.000000	93.782
345.000000	93.742
350.000000	93.678
355.000000	93.612
360.000000	93.584
365.000000	93.526
370.000000	93.517
375.000000	93.476
382.000000	93.444
387.000000	93.396
395.000000	93.358
400.000000	93.316
406.000000	93.293
412.000000	93.268
418.000000	93.261
425.000000	93.221
431.000000	93.216
437.000000	93.204
444.000000	93.194
450.000000	93.190
455.000000	93.163
462.000000	93.181
468.000000	93.165
475.000000	93.155
482.000000	93.124
487.000000	93.135
494.000000	93.128
500.000000	93.109
508.000000	93.083
515.000000	93.116
522.000000	93.122
530.000000	93.092
538.000000	93.080
545.000000	93.082
552.000000	93.036
560.000000	93.049
570.000000	93.057
580.000000	93.030
590.000000	93.000
600.000000	92.997
608.000000	92.984
615.000000	92.992
622.000000	92.970
630.000000	92.940
640.000000	92.968
650.000000	92.985
660.000000	93.006
670.000000	93.011
680.000000	93.036
690.000000	93.119
700.000000	93.184
710.000000	93.220
720.000000	93.259
730.000000	93.331
740.000000	93.394
750.000000	93.517
762.000000	93.540
775.000000	93.609
788.000000	93.698
800.000000	93.741
812.000000	93.776
825.000000	93.823
838.000000	93.881
850.000000	93.934
862.000000	94.061
875.000000	94.163
885.000000	94.219
900.000000	94.251
912.000000	94.362
925.000000	94.391
938.000000	94.480
950.000000	94.591
962.000000	94.730
975.000000	94.851
988.000000	94.950
1000.000000	94.988
1015.000000	95.062
1030.000000	95.081
1044.000000	95.195
1060.000000	95.389
1075.000000	95.560
1090.000000	95.701
1106.000000	95.794
1120.000000	95.802
1138.000000	95.994
1150.000000	96.036
1172.000000	96.198
1180.000000	96.218
1206.000000	96.246
1220.000000	96.406
1241.000000	96.497
1250.000000	96.546
1265.000000	96.650
1280.000000	96.835
1315.000000	97.134
1320.000000	97.168
1340.000000	97.257
1360.000000	97.346
1380.000000	97.457
1400.000000	97.674
1430.000000	97.919
1450.000000	97.972
1475.000000	98.370
1500.000000	98.698
1525.000000	98.406
1550.000000	98.594
1575.000000	98.953
1600.000000	99.188
1625.000000	99.130
1650.000000	99.211
1675.000000	99.427
1700.000000	98.990
1725.000000	99.211
1750.000000	98.623
1775.000000	98.215
1800.000000	97.721
1825.000000	97.845
1850.000000	97.453
1875.000000	97.224
1900.000000	96.831
1925.000000	97.123
1950.000000	97.171
1975.000000	97.393
2000.000000	98.065
2030.000000	98.386
2060.000000	99.323
2090.000000	99.296
2120.000000	99.169
2140.000000	100.092
2180.000000	100.308
2200.000000	100.598
2240.000000	101.538
2270.000000	101.881
2300.000000	101.867
2330.000000	101.941
2360.000000	102.117
2400.000000	102.046
2430.000000	102.058
2470.000000	102.337
2500.000000	102.394
2540.000000	102.247
2580.000000	102.317
2620.000000	102.405
2650.000000	102.152
2690.000000	102.565
2720.000000	103.064
2760.000000	103.135
2800.000000	103.488
2850.000000	103.630
2900.000000	104.164
2950.000000	104.485
3000.000000	104.958
3040.000000	105.280
3070.000000	105.354
3110.000000	105.421
3150.000000	105.353
3200.000000	105.269
3250.000000	105.157
3300.000000	104.998
3350.000000	104.841
3400.000000	104.685
3450.000000	104.496
3500.000000	104.207
3550.000000	103.770
3600.000000	103.405
3650.000000	102.927
3700.000000	102.313
3750.000000	101.993
3820.000000	101.181
3870.000000	100.714
3950.000000	100.064
4000.000000	99.681
4060.000000	99.353
4120.000000	99.070
4180.000000	98.992
4250.000000	98.830
4310.000000	98.936
4370.000000	98.974
4440.000000	99.133
4500.000000	99.284
4550.000000	99.213
4620.000000	99.165
4680.000000	99.057
4750.000000	99.052
4820.000000	99.094
4870.000000	99.106
4940.000000	99.262
5000.000000	99.552
5080.000000	100.214
5150.000000	100.704
5220.000000	101.443
5300.000000	102.287
5380.000000	103.359
5450.000000	104.121
5520.000000	104.697
5600.000000	104.915
5700.000000	104.599
5800.000000	103.597
5900.000000	102.372
6000.000000	101.197
6080.000000	100.461
6150.000000	99.934
6220.000000	99.513
6300.000000	99.083
6400.000000	98.741
6500.000000	98.662
6600.000000	98.660
6700.000000	98.761
6800.000000	98.859
6900.000000	99.007
7000.000000	99.219
7100.000000	99.370
7200.000000	99.399
7300.000000	99.343
7400.000000	99.358
7500.000000	99.324
7620.000000	99.241
7750.000000	99.205
7880.000000	99.282
8000.000000	99.414
8120.000000	99.579
8250.000000	99.757
8380.000000	99.849
8500.000000	99.660
8620.000000	99.045
8750.000000	97.722
8850.000000	96.283
9000.000000	93.864
9120.000000	92.100
9250.000000	90.697
9380.000000	89.629
9500.000000	88.631
9620.000000	87.610
9750.000000	86.987
9880.000000	86.159
10000.000000	85.340
10150.000000	84.141
10300.000000	82.845
10440.000000	81.919
10600.000000	82.663
10750.000000	84.800
10900.000000	87.582
11060.000000	89.899
11200.000000	90.821
11380.000000	91.176
11500.000000	91.225
11720.000000	90.805
11800.000000	90.765
12060.000000	91.205
12200.000000	91.646
12410.000000	92.188
12500.000000	92.458
12650.000000	92.586
12800.000000	92.182
13150.000000	85.280
13200.000000	83.632
13400.000000	79.104
13600.000000	79.466
13800.000000	79.259
14000.000000	78.347
14300.000000	78.879
14500.000000	79.804
14750.000000	80.795
15000.000000	81.235
15250.000000	81.651
15500.000000	80.155
15750.000000	79.179
16000.000000	80.452
16250.000000	80.726
16500.000000	80.115
16750.000000	80.104
17000.000000	83.246
17250.000000	85.864
17500.000000	83.971
17750.000000	80.301
18000.000000	75.694
18250.000000	72.528
18500.000000	72.450
18750.000000	73.983
19000.000000	76.487
19250.000000	78.967
19500.000000	80.605
19750.000000	81.337
