* Measurement data measured by REW V5.31.1
* Source: Frequency response averaged data
* Format: Averaged data produced from the rms magnitudes of R 911, R 912, R 913, R 914
* Dated: 6/08/2025 01:23:51 AM
* REW Settings:
*  C-weighting compensation: Off
*  Target level: 75.0 dB
* Note: Averaged data produced from the rms magnitudes of R 911, R 912, R 913, R 914
* Measurement: R AVG 110
* Smoothing: None
* Frequency Step: 1/48 octave
* Start Frequency: 20.000 Hz
*
* Freq(Hz)	SPL(dB)
20.000000	80.955
20.299999	81.136
20.600000	81.328
20.900000	81.515
21.200001	81.683
21.400000	81.781
21.799999	81.945
22.000000	82.016
22.400000	82.149
22.700001	82.254
23.000000	82.373
23.299999	82.510
23.600000	82.663
24.000000	82.883
24.299999	83.046
24.700001	83.244
25.000000	83.371
25.400000	83.515
25.799999	83.646
26.200001	83.789
26.500000	83.912
26.900000	84.090
27.200001	84.225
27.600000	84.391
28.000000	84.535
28.500000	84.696
29.000000	84.859
29.500000	85.041
30.000000	85.232
30.400000	85.380
30.700001	85.482
31.100000	85.609
31.500000	85.726
32.000000	85.869
32.500000	86.022
33.000000	86.196
33.500000	86.391
34.000000	86.585
34.500000	86.757
35.000000	86.899
35.500000	87.027
36.000000	87.167
36.500000	87.325
37.000000	87.484
37.500000	87.629
38.200001	87.814
38.700001	87.953
39.500000	88.182
40.000000	88.313
40.599998	88.462
41.200001	88.615
41.799999	88.774
42.500000	88.953
43.099998	89.105
43.700001	89.263
44.400002	89.443
45.000000	89.584
45.500000	89.695
46.200001	89.838
46.799999	89.935
47.500000	90.035
48.200001	90.184
48.700001	90.322
49.400002	90.501
50.000000	90.612
50.799999	90.752
51.500000	90.890
52.200001	91.024
53.000000	91.173
53.799999	91.298
54.500000	91.403
55.200001	91.525
56.000000	91.603
57.000000	91.693
58.000000	91.910
59.000000	91.838
60.000000	91.902
60.799999	92.165
61.500000	92.269
62.200001	92.322
63.000000	92.444
64.000000	92.528
65.000000	92.598
66.000000	92.676
67.000000	92.719
68.000000	92.765
69.000000	92.808
70.000000	92.864
71.000000	92.877
72.000000	92.895
73.000000	92.881
74.000000	92.801
75.000000	92.722
76.199997	92.576
77.500000	92.440
78.800003	92.395
80.000000	92.342
81.199997	92.281
82.500000	92.216
83.800003	92.184
85.000000	92.132
86.199997	92.128
87.500000	92.091
88.500000	92.103
90.000000	92.112
91.199997	92.106
92.500000	92.037
93.800003	92.039
95.000000	91.961
96.199997	91.898
97.500000	91.840
98.800003	91.717
100.000000	91.705
101.500000	91.558
103.000000	91.496
104.400002	91.422
106.000000	91.318
107.500000	91.244
109.000000	91.150
110.599998	91.088
112.000000	91.081
113.800003	91.051
115.000000	91.075
117.199997	91.008
118.000000	90.680
120.599998	91.176
122.000000	91.099
124.099998	91.245
125.000000	91.330
126.500000	91.341
128.000000	91.403
131.500000	91.404
132.000000	91.418
134.000000	91.402
136.000000	91.398
138.000000	91.350
140.000000	91.342
143.000000	91.321
145.000000	91.307
147.500000	91.240
150.000000	91.193
152.500000	91.154
155.000000	91.192
157.500000	91.266
160.000000	91.291
162.500000	91.305
165.000000	91.417
167.500000	91.388
170.000000	91.454
172.500000	91.479
175.000000	91.454
177.500000	91.467
180.000000	91.445
182.500000	91.440
185.000000	91.439
187.500000	91.445
190.000000	91.443
192.500000	91.452
195.000000	91.483
197.500000	91.477
200.000000	91.507
203.000000	91.539
206.000000	91.562
209.000000	91.524
212.000000	91.507
214.000000	91.503
218.000000	91.460
220.000000	91.468
224.000000	91.437
227.000000	91.452
230.000000	91.436
233.000000	91.385
236.000000	91.394
240.000000	91.387
243.000000	91.388
247.000000	91.371
250.000000	91.362
254.000000	91.365
258.000000	91.408
262.000000	91.464
265.000000	91.499
269.000000	91.620
272.000000	91.711
276.000000	91.846
280.000000	91.970
285.000000	92.119
290.000000	92.258
295.000000	92.350
300.000000	92.363
304.000000	92.318
307.000000	92.312
311.000000	92.299
315.000000	92.280
320.000000	92.234
325.000000	92.185
330.000000	92.145
335.000000	92.109
340.000000	92.091
345.000000	92.042
350.000000	92.003
355.000000	91.966
360.000000	91.944
365.000000	91.885
370.000000	91.877
375.000000	91.879
382.000000	91.903
387.000000	91.910
395.000000	91.951
400.000000	91.935
406.000000	91.939
412.000000	91.929
418.000000	91.950
425.000000	91.983
431.000000	91.997
437.000000	92.033
444.000000	92.068
450.000000	92.061
455.000000	92.053
462.000000	92.073
468.000000	92.060
475.000000	92.109
482.000000	92.081
487.000000	92.116
494.000000	92.165
500.000000	92.150
508.000000	92.198
515.000000	92.230
522.000000	92.263
530.000000	92.315
538.000000	92.356
545.000000	92.351
552.000000	92.393
560.000000	92.451
570.000000	92.516
580.000000	92.546
590.000000	92.604
600.000000	92.646
608.000000	92.703
615.000000	92.765
622.000000	92.801
630.000000	92.841
640.000000	92.941
650.000000	93.015
660.000000	93.085
670.000000	93.186
680.000000	93.279
690.000000	93.336
700.000000	93.424
710.000000	93.507
720.000000	93.557
730.000000	93.625
740.000000	93.676
750.000000	93.801
762.000000	93.878
775.000000	93.967
788.000000	94.103
800.000000	94.181
812.000000	94.262
825.000000	94.290
838.000000	94.362
850.000000	94.439
862.000000	94.508
875.000000	94.640
885.000000	94.657
900.000000	94.670
912.000000	94.747
925.000000	94.718
938.000000	94.639
950.000000	94.533
962.000000	94.518
975.000000	94.675
988.000000	94.688
1000.000000	94.566
1015.000000	94.566
1030.000000	94.502
1044.000000	94.409
1060.000000	94.551
1075.000000	94.517
1090.000000	94.708
1106.000000	94.794
1120.000000	94.734
1138.000000	94.866
1150.000000	94.958
1172.000000	95.235
1180.000000	95.250
1206.000000	95.260
1220.000000	95.359
1241.000000	95.495
1250.000000	95.453
1265.000000	95.430
1280.000000	95.568
1315.000000	95.947
1320.000000	95.960
1340.000000	96.155
1360.000000	96.094
1380.000000	96.017
1400.000000	96.013
1430.000000	96.399
1450.000000	96.258
1475.000000	96.472
1500.000000	97.180
1525.000000	96.595
1550.000000	96.315
1575.000000	96.481
1600.000000	96.795
1625.000000	96.879
1650.000000	96.705
1675.000000	96.941
1700.000000	96.522
1725.000000	96.780
1750.000000	96.473
1775.000000	96.130
1800.000000	95.293
1825.000000	95.469
1850.000000	95.645
1875.000000	95.427
1900.000000	95.518
1925.000000	95.775
1950.000000	95.769
1975.000000	95.882
2000.000000	96.642
2030.000000	97.160
2060.000000	97.480
2090.000000	98.807
2120.000000	98.909
2140.000000	99.332
2180.000000	99.990
2200.000000	99.928
2240.000000	100.616
2270.000000	101.241
2300.000000	101.548
2330.000000	101.703
2360.000000	101.986
2400.000000	101.937
2430.000000	101.685
2470.000000	101.613
2500.000000	101.481
2540.000000	100.966
2580.000000	100.519
2620.000000	100.088
2650.000000	100.121
2690.000000	99.324
2720.000000	99.455
2760.000000	99.372
2800.000000	99.173
2850.000000	98.428
2900.000000	98.506
2950.000000	98.394
3000.000000	98.739
3040.000000	98.941
3070.000000	98.680
3110.000000	98.958
3150.000000	99.189
3200.000000	99.427
3250.000000	99.979
3300.000000	100.115
3350.000000	100.447
3400.000000	100.735
3450.000000	100.944
3500.000000	101.310
3550.000000	101.358
3600.000000	101.550
3650.000000	101.759
3700.000000	101.869
3750.000000	102.170
3820.000000	102.227
3870.000000	102.142
3950.000000	101.881
4000.000000	101.825
4060.000000	101.676
4120.000000	101.343
4180.000000	101.100
4250.000000	101.092
4310.000000	101.128
4370.000000	101.195
4440.000000	101.259
4500.000000	101.334
4550.000000	101.354
4620.000000	101.243
4680.000000	101.336
4750.000000	101.248
4820.000000	101.374
4870.000000	101.554
4940.000000	101.727
5000.000000	102.014
5080.000000	102.431
5150.000000	103.165
5220.000000	103.960
5300.000000	105.009
5380.000000	106.025
5450.000000	106.926
5520.000000	107.675
5600.000000	108.188
5700.000000	108.058
5800.000000	107.306
5900.000000	105.877
6000.000000	104.465
6080.000000	103.415
6150.000000	102.501
6220.000000	101.674
6300.000000	100.861
6400.000000	100.149
6500.000000	99.657
6600.000000	99.507
6700.000000	99.443
6800.000000	99.306
6900.000000	99.406
7000.000000	99.609
7100.000000	99.674
7200.000000	99.809
7300.000000	99.776
7400.000000	99.934
7500.000000	100.005
7620.000000	100.083
7750.000000	100.182
7880.000000	100.276
8000.000000	100.227
8120.000000	100.025
8250.000000	99.510
8380.000000	98.632
8500.000000	97.511
8620.000000	96.153
8750.000000	94.356
8850.000000	93.187
9000.000000	92.337
9120.000000	92.557
9250.000000	93.018
9380.000000	93.237
9500.000000	92.904
9620.000000	92.408
9750.000000	91.851
9880.000000	91.102
10000.000000	90.265
10150.000000	89.021
10300.000000	87.535
10440.000000	86.229
10600.000000	85.921
10750.000000	87.144
10900.000000	89.332
11060.000000	92.176
11200.000000	94.099
11380.000000	95.220
11500.000000	95.451
11720.000000	94.773
11800.000000	94.186
12060.000000	92.336
12200.000000	91.794
12410.000000	91.525
12500.000000	91.461
12650.000000	91.076
12800.000000	89.849
13150.000000	85.308
13200.000000	85.061
13400.000000	83.837
13600.000000	82.418
13800.000000	81.033
14000.000000	80.015
14300.000000	80.568
14500.000000	81.575
14750.000000	83.297
15000.000000	83.908
15250.000000	83.425
15500.000000	81.483
15750.000000	80.929
16000.000000	80.522
16250.000000	79.916
16500.000000	81.032
16750.000000	80.853
17000.000000	78.730
17250.000000	79.011
17500.000000	83.938
17750.000000	86.086
18000.000000	84.869
18250.000000	82.198
18500.000000	79.200
18750.000000	76.696
19000.000000	75.334
19250.000000	73.752
19500.000000	68.628
19750.000000	67.914
