* Measurement data measured by REW V5.31.1
* Source: Frequency response averaged data
* Format: Averaged data produced from the rms magnitudes of L 899, L 900, L 901, L 902
* Dated: 6/08/2025 01:08:49 AM
* REW Settings:
*  C-weighting compensation: Off
*  Target level: 75.0 dB
* Note: Averaged data produced from the rms magnitudes of L 899, L 900, L 901, L 902
* Measurement: L C1 AVG 100 T
* Smoothing: None
* Frequency Step: 1/48 octave
* Start Frequency: 20.000 Hz
*
* Freq(Hz)	SPL(dB)
20.000000	85.012
20.299999	85.200
20.600000	85.388
20.900000	85.569
21.200001	85.739
21.400000	85.844
21.799999	86.037
22.000000	86.124
22.400000	86.283
22.700001	86.395
23.000000	86.508
23.299999	86.626
23.600000	86.751
24.000000	86.929
24.299999	87.068
24.700001	87.255
25.000000	87.391
25.400000	87.567
25.799999	87.736
26.200001	87.897
26.500000	88.013
26.900000	88.163
27.200001	88.274
27.600000	88.425
28.000000	88.582
28.500000	88.786
29.000000	88.985
29.500000	89.166
30.000000	89.332
30.400000	89.460
30.700001	89.559
31.100000	89.697
31.500000	89.839
32.000000	90.018
32.500000	90.189
33.000000	90.351
33.500000	90.508
34.000000	90.661
34.500000	90.813
35.000000	90.966
35.500000	91.134
36.000000	91.322
36.500000	91.513
37.000000	91.672
37.500000	91.781
38.200001	91.906
38.700001	92.041
39.500000	92.336
40.000000	92.500
40.599998	92.650
41.200001	92.793
41.799999	92.960
42.500000	93.154
43.099998	93.299
43.700001	93.445
44.400002	93.632
45.000000	93.798
45.500000	93.929
46.200001	94.097
46.799999	94.221
47.500000	94.348
48.200001	94.480
48.700001	94.583
49.400002	94.730
50.000000	94.842
50.799999	94.972
51.500000	95.093
52.200001	95.226
53.000000	95.372
53.799999	95.498
54.500000	95.603
55.200001	95.702
56.000000	95.809
57.000000	95.940
58.000000	96.074
59.000000	96.213
60.000000	96.331
60.799999	96.442
61.500000	96.565
62.200001	96.665
63.000000	96.712
64.000000	96.749
65.000000	96.828
66.000000	96.849
67.000000	96.846
68.000000	96.874
69.000000	96.873
70.000000	96.857
71.000000	96.828
72.000000	96.790
73.000000	96.756
74.000000	96.736
75.000000	96.748
76.199997	96.790
77.500000	96.910
78.800003	96.963
80.000000	96.978
81.199997	96.889
82.500000	96.814
83.800003	96.789
85.000000	96.808
86.199997	96.841
87.500000	96.892
88.500000	96.908
90.000000	96.898
91.199997	96.918
92.500000	96.904
93.800003	96.881
95.000000	96.855
96.199997	96.830
97.500000	96.790
98.800003	96.774
100.000000	96.734
101.500000	96.719
103.000000	96.644
104.400002	96.596
106.000000	96.543
107.500000	96.501
109.000000	96.457
110.599998	96.415
112.000000	96.363
113.800003	96.308
115.000000	96.284
117.199997	96.200
118.000000	96.178
120.599998	96.106
122.000000	96.061
124.099998	96.006
125.000000	95.981
126.500000	95.948
128.000000	95.907
131.500000	95.747
132.000000	95.725
134.000000	95.633
136.000000	95.603
138.000000	95.571
140.000000	95.531
143.000000	95.471
145.000000	95.408
147.500000	95.364
150.000000	95.316
152.500000	95.249
155.000000	95.198
157.500000	95.123
160.000000	95.055
162.500000	95.013
165.000000	94.948
167.500000	94.890
170.000000	94.836
172.500000	94.777
175.000000	94.722
177.500000	94.664
180.000000	94.632
182.500000	94.525
185.000000	94.463
187.500000	94.404
190.000000	94.360
192.500000	94.280
195.000000	94.234
197.500000	94.166
200.000000	94.097
203.000000	94.020
206.000000	93.922
209.000000	93.843
212.000000	93.784
214.000000	93.715
218.000000	93.620
220.000000	93.594
224.000000	93.538
227.000000	93.503
230.000000	93.480
233.000000	93.492
236.000000	93.506
240.000000	93.533
243.000000	93.584
247.000000	93.666
250.000000	93.709
254.000000	93.773
258.000000	93.851
262.000000	93.989
265.000000	94.085
269.000000	94.181
272.000000	94.243
276.000000	94.287
280.000000	94.303
285.000000	94.265
290.000000	94.238
295.000000	94.194
300.000000	94.122
304.000000	94.063
307.000000	94.026
311.000000	93.993
315.000000	93.942
320.000000	93.879
325.000000	93.821
330.000000	93.780
335.000000	93.711
340.000000	93.675
345.000000	93.626
350.000000	93.589
355.000000	93.531
360.000000	93.463
365.000000	93.427
370.000000	93.391
375.000000	93.373
382.000000	93.339
387.000000	93.331
395.000000	93.317
400.000000	93.297
406.000000	93.248
412.000000	93.209
418.000000	93.196
425.000000	93.162
431.000000	93.144
437.000000	93.114
444.000000	93.080
450.000000	93.066
455.000000	93.048
462.000000	93.035
468.000000	93.015
475.000000	92.976
482.000000	92.942
487.000000	92.933
494.000000	92.894
500.000000	92.869
508.000000	92.818
515.000000	92.833
522.000000	92.802
530.000000	92.781
538.000000	92.768
545.000000	92.737
552.000000	92.743
560.000000	92.762
570.000000	92.752
580.000000	92.767
590.000000	92.746
600.000000	92.718
608.000000	92.730
615.000000	92.689
622.000000	92.711
630.000000	92.653
640.000000	92.706
650.000000	92.676
660.000000	92.709
670.000000	92.742
680.000000	92.732
690.000000	92.778
700.000000	92.853
710.000000	92.865
720.000000	92.898
730.000000	92.975
740.000000	93.058
750.000000	93.145
762.000000	93.178
775.000000	93.279
788.000000	93.346
800.000000	93.374
812.000000	93.427
825.000000	93.424
838.000000	93.493
850.000000	93.587
862.000000	93.690
875.000000	93.778
885.000000	93.821
900.000000	93.860
912.000000	93.934
925.000000	93.973
938.000000	94.016
950.000000	94.093
962.000000	94.234
975.000000	94.354
988.000000	94.437
1000.000000	94.455
1015.000000	94.512
1030.000000	94.555
1044.000000	94.626
1060.000000	94.817
1075.000000	94.984
1090.000000	95.139
1106.000000	95.191
1120.000000	95.192
1138.000000	95.306
1150.000000	95.310
1172.000000	95.445
1180.000000	95.451
1206.000000	95.521
1220.000000	95.655
1241.000000	95.728
1250.000000	95.736
1265.000000	95.796
1280.000000	95.993
1315.000000	96.245
1320.000000	96.295
1340.000000	96.302
1360.000000	96.383
1380.000000	96.464
1400.000000	96.703
1430.000000	96.916
1450.000000	96.972
1475.000000	97.320
1500.000000	97.661
1525.000000	97.283
1550.000000	97.466
1575.000000	97.783
1600.000000	98.090
1625.000000	98.052
1650.000000	98.197
1675.000000	98.656
1700.000000	98.440
1725.000000	99.042
1750.000000	98.910
1775.000000	98.953
1800.000000	98.942
1825.000000	99.612
1850.000000	99.593
1875.000000	99.618
1900.000000	99.374
1925.000000	99.852
1950.000000	99.964
1975.000000	100.087
2000.000000	100.657
2030.000000	100.815
2060.000000	101.798
2090.000000	101.627
2120.000000	101.383
2140.000000	102.251
2180.000000	102.328
2200.000000	102.609
2240.000000	103.397
2270.000000	103.734
2300.000000	103.755
2330.000000	104.005
2360.000000	104.165
2400.000000	104.240
2430.000000	104.370
2470.000000	104.752
2500.000000	105.019
2540.000000	105.072
2580.000000	105.169
2620.000000	105.343
2650.000000	105.082
2690.000000	105.239
2720.000000	105.422
2760.000000	105.250
2800.000000	105.171
2850.000000	104.865
2900.000000	104.948
2950.000000	104.768
3000.000000	104.910
3040.000000	104.933
3070.000000	104.743
3110.000000	104.570
3150.000000	104.079
3200.000000	103.552
3250.000000	103.136
3300.000000	102.525
3350.000000	102.107
3400.000000	101.651
3450.000000	101.243
3500.000000	100.710
3550.000000	100.214
3600.000000	99.882
3650.000000	99.466
3700.000000	99.221
3750.000000	99.312
3820.000000	99.240
3870.000000	99.360
3950.000000	99.495
4000.000000	99.449
4060.000000	99.393
4120.000000	99.273
4180.000000	99.245
4250.000000	99.047
4310.000000	98.937
4370.000000	98.741
4440.000000	98.470
4500.000000	98.294
4550.000000	98.068
4620.000000	97.918
4680.000000	97.736
4750.000000	97.702
4820.000000	97.723
4870.000000	97.791
4940.000000	97.943
5000.000000	98.185
5080.000000	98.864
5150.000000	99.500
5220.000000	100.333
5300.000000	101.241
5380.000000	102.232
5450.000000	103.064
5520.000000	103.670
5600.000000	104.061
5700.000000	104.182
5800.000000	103.597
5900.000000	102.832
6000.000000	101.882
6080.000000	101.256
6150.000000	100.699
6220.000000	100.223
6300.000000	99.708
6400.000000	99.209
6500.000000	98.967
6600.000000	98.842
6700.000000	98.922
6800.000000	99.072
6900.000000	99.220
7000.000000	99.382
7100.000000	99.599
7200.000000	99.642
7300.000000	99.594
7400.000000	99.526
7500.000000	99.450
7620.000000	99.304
7750.000000	99.227
7880.000000	99.253
8000.000000	99.285
8120.000000	99.270
8250.000000	99.221
8380.000000	99.042
8500.000000	98.663
8620.000000	98.002
8750.000000	96.822
8850.000000	95.568
9000.000000	93.367
9120.000000	91.516
9250.000000	89.463
9380.000000	87.904
9500.000000	87.022
9620.000000	86.814
9750.000000	86.881
9880.000000	86.415
10000.000000	85.767
10150.000000	85.241
10300.000000	85.133
10440.000000	85.244
10600.000000	86.220
10750.000000	87.974
10900.000000	90.578
11060.000000	93.343
11200.000000	93.795
11380.000000	94.019
11500.000000	94.162
11720.000000	93.739
11800.000000	93.637
12060.000000	93.434
12200.000000	93.603
12410.000000	93.647
12500.000000	93.469
12650.000000	92.546
12800.000000	90.648
13150.000000	83.870
13200.000000	83.354
13400.000000	84.493
13600.000000	85.855
13800.000000	85.657
14000.000000	84.998
14300.000000	84.542
14500.000000	83.579
14750.000000	81.745
15000.000000	80.306
15250.000000	78.048
15500.000000	73.596
15750.000000	72.580
16000.000000	77.962
16250.000000	78.860
16500.000000	79.895
16750.000000	82.001
17000.000000	85.389
17250.000000	87.100
17500.000000	85.228
17750.000000	82.604
18000.000000	80.233
18250.000000	77.947
18500.000000	75.676
18750.000000	72.089
19000.000000	71.879
19250.000000	74.187
19500.000000	75.254
19750.000000	75.263
