* Measurement data measured by REW V5.31.1
* Source: Frequency response averaged data
* Format: Averaged data produced from the rms magnitudes of R 804, R 805, R 806, R 807, R 808, R 809
* Dated: 14/09/2024 01:38:40 PM
* REW Settings:
*  C-weighting compensation: Off
*  Target level: 75.0 dB
* Note: Averaged data produced from the rms magnitudes of R 804, R 805, R 806, R 807, R 808, R 809
* Measurement: R o1 AVG
* Smoothing: None
* Frequency Step: 1/48 octave
* Start Frequency: 20.000 Hz
*
* Freq(Hz)	SPL(dB)
20.000000	87.021
20.299999	87.270
20.600000	87.456
20.900000	87.570
21.200001	87.622
21.400000	87.641
21.799999	87.678
22.000000	87.715
22.400000	87.845
22.700001	87.985
23.000000	88.143
23.299999	88.301
23.600000	88.450
24.000000	88.627
24.299999	88.747
24.700001	88.897
25.000000	89.005
25.400000	89.150
25.799999	89.304
26.200001	89.470
26.500000	89.600
26.900000	89.769
27.200001	89.886
27.600000	90.029
28.000000	90.170
28.500000	90.367
29.000000	90.571
29.500000	90.734
30.000000	90.842
30.400000	90.940
30.700001	91.052
31.100000	91.264
31.500000	91.517
32.000000	91.804
32.500000	92.008
33.000000	92.144
33.500000	92.236
34.000000	92.281
34.500000	92.306
35.000000	92.403
35.500000	92.648
36.000000	92.961
36.500000	93.189
37.000000	93.276
37.500000	93.321
38.200001	93.536
38.700001	93.740
39.500000	93.845
40.000000	93.838
40.599998	93.959
41.200001	94.218
41.799999	94.447
42.500000	94.616
43.099998	94.759
43.700001	94.910
44.400002	95.068
45.000000	95.219
45.500000	95.353
46.200001	95.488
46.799999	95.550
47.500000	95.671
48.200001	95.867
48.700001	95.985
49.400002	96.077
50.000000	96.149
50.799999	96.300
51.500000	96.419
52.200001	96.503
53.000000	96.622
53.799999	96.747
54.500000	96.832
55.200001	96.924
56.000000	97.017
57.000000	97.129
58.000000	97.250
59.000000	97.214
60.000000	97.359
60.799999	97.494
61.500000	97.481
62.200001	97.549
63.000000	97.747
64.000000	97.724
65.000000	97.670
66.000000	97.869
67.000000	97.939
68.000000	97.945
69.000000	97.955
70.000000	97.896
71.000000	97.815
72.000000	97.707
73.000000	97.595
74.000000	97.487
75.000000	97.464
76.199997	97.595
77.500000	97.702
78.800003	97.812
80.000000	97.890
81.199997	97.935
82.500000	97.956
83.800003	97.958
85.000000	97.993
86.199997	97.893
87.500000	97.800
88.500000	97.819
90.000000	97.861
91.199997	97.871
92.500000	97.842
93.800003	97.840
95.000000	97.814
96.199997	97.807
97.500000	97.749
98.800003	97.713
100.000000	97.670
101.500000	97.622
103.000000	97.613
104.400002	97.478
106.000000	97.588
107.500000	97.426
109.000000	97.395
110.599998	97.321
112.000000	97.291
113.800003	97.266
115.000000	97.216
117.199997	97.155
118.000000	97.083
120.599998	97.080
122.000000	97.036
124.099998	96.994
125.000000	96.990
126.500000	96.921
128.000000	96.885
131.500000	96.786
132.000000	96.778
134.000000	96.701
136.000000	96.632
138.000000	96.538
140.000000	96.560
143.000000	96.455
145.000000	96.423
147.500000	96.335
150.000000	96.217
152.500000	96.250
155.000000	96.165
157.500000	96.117
160.000000	96.091
162.500000	96.046
165.000000	95.965
167.500000	95.907
170.000000	95.863
172.500000	95.835
175.000000	95.807
177.500000	95.764
180.000000	95.727
182.500000	95.715
185.000000	95.676
187.500000	95.661
190.000000	95.662
192.500000	95.614
195.000000	95.599
197.500000	95.573
200.000000	95.544
203.000000	95.506
206.000000	95.493
209.000000	95.475
212.000000	95.449
214.000000	95.456
218.000000	95.479
220.000000	95.467
224.000000	95.467
227.000000	95.473
230.000000	95.433
233.000000	95.406
236.000000	95.356
240.000000	95.302
243.000000	95.239
247.000000	95.117
250.000000	95.067
254.000000	94.988
258.000000	94.953
262.000000	94.861
265.000000	94.835
269.000000	94.781
272.000000	94.734
276.000000	94.671
280.000000	94.627
285.000000	94.564
290.000000	94.509
295.000000	94.477
300.000000	94.433
304.000000	94.387
307.000000	94.368
311.000000	94.337
315.000000	94.292
320.000000	94.273
325.000000	94.233
330.000000	94.223
335.000000	94.163
340.000000	94.128
345.000000	94.107
350.000000	94.081
355.000000	94.072
360.000000	94.021
365.000000	93.972
370.000000	93.972
375.000000	93.942
382.000000	93.908
387.000000	93.884
395.000000	93.839
400.000000	93.796
406.000000	93.774
412.000000	93.699
418.000000	93.701
425.000000	93.668
431.000000	93.668
437.000000	93.642
444.000000	93.628
450.000000	93.610
455.000000	93.586
462.000000	93.590
468.000000	93.560
475.000000	93.565
482.000000	93.560
487.000000	93.547
494.000000	93.523
500.000000	93.511
508.000000	93.509
515.000000	93.501
522.000000	93.502
530.000000	93.495
538.000000	93.511
545.000000	93.520
552.000000	93.526
560.000000	93.530
570.000000	93.539
580.000000	93.541
590.000000	93.516
600.000000	93.527
608.000000	93.538
615.000000	93.526
622.000000	93.530
630.000000	93.535
640.000000	93.567
650.000000	93.579
660.000000	93.610
670.000000	93.639
680.000000	93.650
690.000000	93.669
700.000000	93.754
710.000000	93.757
720.000000	93.803
730.000000	93.896
740.000000	93.947
750.000000	94.003
762.000000	94.012
775.000000	94.077
788.000000	94.195
800.000000	94.214
812.000000	94.251
825.000000	94.261
838.000000	94.346
850.000000	94.413
862.000000	94.489
875.000000	94.569
885.000000	94.544
900.000000	94.613
912.000000	94.675
925.000000	94.758
938.000000	94.794
950.000000	94.879
962.000000	95.075
975.000000	95.161
988.000000	95.176
1000.000000	95.227
1015.000000	95.319
1030.000000	95.457
1044.000000	95.655
1060.000000	95.861
1075.000000	95.939
1090.000000	96.175
1106.000000	96.194
1120.000000	96.334
1138.000000	96.574
1150.000000	96.639
1172.000000	96.775
1180.000000	96.740
1206.000000	96.872
1220.000000	97.073
1241.000000	97.226
1250.000000	97.227
1265.000000	97.352
1280.000000	97.555
1315.000000	97.929
1320.000000	97.965
1340.000000	98.090
1360.000000	98.282
1380.000000	98.430
1400.000000	98.668
1430.000000	98.707
1450.000000	98.781
1475.000000	99.204
1500.000000	99.214
1525.000000	99.363
1550.000000	99.692
1575.000000	100.094
1600.000000	100.438
1625.000000	100.261
1650.000000	100.565
1675.000000	100.721
1700.000000	100.692
1725.000000	100.497
1750.000000	100.505
1775.000000	100.268
1800.000000	100.283
1825.000000	100.706
1850.000000	100.370
1875.000000	100.678
1900.000000	100.885
1925.000000	101.025
1950.000000	101.429
1975.000000	101.142
2000.000000	101.353
2030.000000	102.190
2060.000000	102.289
2090.000000	101.287
2120.000000	101.836
2140.000000	102.947
2180.000000	102.637
2200.000000	102.852
2240.000000	102.702
2270.000000	102.674
2300.000000	102.915
2330.000000	103.448
2360.000000	103.741
2400.000000	103.621
2430.000000	103.923
2470.000000	103.953
2500.000000	103.834
2540.000000	103.594
2580.000000	103.346
2620.000000	103.350
2650.000000	103.120
2690.000000	102.990
2720.000000	103.322
2760.000000	102.712
2800.000000	103.194
2850.000000	103.523
2900.000000	103.879
2950.000000	104.495
3000.000000	104.914
3040.000000	105.318
3070.000000	105.766
3110.000000	106.030
3150.000000	106.079
3200.000000	106.291
3250.000000	106.246
3300.000000	106.222
3350.000000	106.011
3400.000000	105.914
3450.000000	105.734
3500.000000	105.439
3550.000000	105.180
3600.000000	104.663
3650.000000	104.326
3700.000000	103.804
3750.000000	103.312
3820.000000	102.510
3870.000000	101.932
3950.000000	101.059
4000.000000	100.619
4060.000000	99.991
4120.000000	99.521
4180.000000	99.043
4250.000000	98.659
4310.000000	98.266
4370.000000	98.072
4440.000000	97.836
4500.000000	97.610
4550.000000	97.515
4620.000000	97.546
4680.000000	97.607
4750.000000	97.710
4820.000000	98.036
4870.000000	98.193
4940.000000	98.416
5000.000000	98.691
5080.000000	99.115
5150.000000	99.475
5220.000000	100.012
5300.000000	100.616
5380.000000	101.441
5450.000000	102.215
5520.000000	102.972
5600.000000	103.644
5700.000000	104.153
5800.000000	104.111
5900.000000	103.620
6000.000000	103.002
6080.000000	102.411
6150.000000	102.076
6220.000000	101.831
6300.000000	101.583
6400.000000	101.357
6500.000000	101.373
6600.000000	101.309
6700.000000	101.435
6800.000000	101.605
6900.000000	101.757
7000.000000	102.064
7100.000000	102.235
7200.000000	102.357
7300.000000	102.373
7400.000000	102.308
7500.000000	102.268
7620.000000	102.200
7750.000000	102.208
7880.000000	102.335
8000.000000	102.443
8120.000000	102.621
8250.000000	102.794
8380.000000	102.917
8500.000000	102.833
8620.000000	102.369
8750.000000	101.167
8850.000000	99.710
9000.000000	96.904
9120.000000	94.295
9250.000000	91.531
9380.000000	89.193
9500.000000	87.866
9620.000000	87.375
9750.000000	87.303
9880.000000	87.185
10000.000000	86.574
10150.000000	85.232
10300.000000	83.435
10440.000000	81.755
10600.000000	80.574
10750.000000	81.003
10900.000000	81.906
11060.000000	82.555
11200.000000	83.174
11380.000000	82.765
11500.000000	83.074
11720.000000	85.423
11800.000000	86.453
12060.000000	89.494
12200.000000	90.494
12410.000000	91.370
12500.000000	91.567
12650.000000	91.461
12800.000000	90.414
13150.000000	87.468
13200.000000	87.315
13400.000000	87.147
13600.000000	86.351
13800.000000	85.344
14000.000000	84.876
14300.000000	84.927
14500.000000	84.976
14750.000000	84.747
15000.000000	83.128
15250.000000	81.410
15500.000000	79.817
15750.000000	77.599
16000.000000	78.234
16250.000000	79.078
16500.000000	80.199
16750.000000	81.662
17000.000000	84.194
17250.000000	85.039
17500.000000	82.083
17750.000000	78.008
18000.000000	74.226
18250.000000	72.033
18500.000000	73.493
18750.000000	76.285
19000.000000	79.179
19250.000000	81.804
19500.000000	84.025
19750.000000	85.174
