* Measurement data measured by REW V5.31.1
* Source: Frequency response averaged data
* Format: Averaged data produced from the rms magnitudes of R 615, R 616, R 617, R 618, R 619
* Dated: 28/08/2024 02:39:32 AM
* REW Settings:
*  C-weighting compensation: Off
*  Target level: 75.0 dB
* Note: Averaged data produced from the rms magnitudes of R 615, R 616, R 617, R 618, R 619
* Measurement: R AVG
* Smoothing: None
* Frequency Step: 1/48 octave
* Start Frequency: 20.000 Hz
*
* Freq(Hz)	SPL(dB)
20.000000	86.029
20.299999	86.205
20.600000	86.373
20.900000	86.526
21.200001	86.661
21.400000	86.744
21.799999	86.903
22.000000	86.985
22.400000	87.160
22.700001	87.301
23.000000	87.445
23.299999	87.585
23.600000	87.715
24.000000	87.871
24.299999	87.980
24.700001	88.124
25.000000	88.238
25.400000	88.396
25.799999	88.559
26.200001	88.718
26.500000	88.833
26.900000	88.984
27.200001	89.096
27.600000	89.244
28.000000	89.392
28.500000	89.574
29.000000	89.754
29.500000	89.933
30.000000	90.109
30.400000	90.247
30.700001	90.348
31.100000	90.480
31.500000	90.610
32.000000	90.776
32.500000	90.946
33.000000	91.118
33.500000	91.284
34.000000	91.443
34.500000	91.598
35.000000	91.756
35.500000	91.917
36.000000	92.076
36.500000	92.227
37.000000	92.372
37.500000	92.517
38.200001	92.722
38.700001	92.866
39.500000	93.085
40.000000	93.221
40.599998	93.388
41.200001	93.555
41.799999	93.714
42.500000	93.887
43.099998	94.033
43.700001	94.181
44.400002	94.350
45.000000	94.492
45.500000	94.615
46.200001	94.791
46.799999	94.931
47.500000	95.072
48.200001	95.206
48.700001	95.311
49.400002	95.467
50.000000	95.597
50.799999	95.765
51.500000	95.901
52.200001	96.027
53.000000	96.171
53.799999	96.313
54.500000	96.421
55.200001	96.526
56.000000	96.654
57.000000	96.796
58.000000	96.920
59.000000	97.052
60.000000	97.172
60.799999	97.258
61.500000	97.318
62.200001	97.378
63.000000	97.465
64.000000	97.587
65.000000	97.707
66.000000	97.824
67.000000	97.931
68.000000	98.041
69.000000	98.102
70.000000	98.139
71.000000	98.173
72.000000	98.179
73.000000	98.169
74.000000	98.154
75.000000	98.147
76.199997	98.145
77.500000	98.181
78.800003	98.244
80.000000	98.333
81.199997	98.443
82.500000	98.530
83.800003	98.522
85.000000	98.508
86.199997	98.459
87.500000	98.445
88.500000	98.498
90.000000	98.601
91.199997	98.673
92.500000	98.719
93.800003	98.760
95.000000	98.796
96.199997	98.823
97.500000	98.840
98.800003	98.858
100.000000	98.862
101.500000	98.866
103.000000	98.865
104.400002	98.867
106.000000	98.847
107.500000	98.844
109.000000	98.824
110.599998	98.799
112.000000	98.798
113.800003	98.793
115.000000	98.782
117.199997	98.770
118.000000	98.766
120.599998	98.745
122.000000	98.726
124.099998	98.707
125.000000	98.699
126.500000	98.684
128.000000	98.674
131.500000	98.642
132.000000	98.633
134.000000	98.617
136.000000	98.591
138.000000	98.576
140.000000	98.551
143.000000	98.523
145.000000	98.510
147.500000	98.464
150.000000	98.436
152.500000	98.403
155.000000	98.373
157.500000	98.347
160.000000	98.325
162.500000	98.269
165.000000	98.276
167.500000	98.195
170.000000	98.142
172.500000	98.108
175.000000	98.075
177.500000	98.023
180.000000	97.990
182.500000	97.954
185.000000	97.909
187.500000	97.869
190.000000	97.830
192.500000	97.796
195.000000	97.769
197.500000	97.734
200.000000	97.698
203.000000	97.666
206.000000	97.646
209.000000	97.622
212.000000	97.594
214.000000	97.581
218.000000	97.561
220.000000	97.542
224.000000	97.502
227.000000	97.479
230.000000	97.433
233.000000	97.396
236.000000	97.354
240.000000	97.292
243.000000	97.249
247.000000	97.185
250.000000	97.150
254.000000	97.102
258.000000	97.071
262.000000	97.058
265.000000	97.065
269.000000	97.071
272.000000	97.083
276.000000	97.093
280.000000	97.113
285.000000	97.113
290.000000	97.105
295.000000	97.116
300.000000	97.108
304.000000	97.082
307.000000	97.069
311.000000	97.044
315.000000	97.030
320.000000	96.982
325.000000	96.949
330.000000	96.923
335.000000	96.868
340.000000	96.845
345.000000	96.824
350.000000	96.796
355.000000	96.766
360.000000	96.718
365.000000	96.721
370.000000	96.703
375.000000	96.690
382.000000	96.658
387.000000	96.632
395.000000	96.591
400.000000	96.559
406.000000	96.530
412.000000	96.496
418.000000	96.475
425.000000	96.453
431.000000	96.446
437.000000	96.426
444.000000	96.404
450.000000	96.374
455.000000	96.360
462.000000	96.344
468.000000	96.336
475.000000	96.347
482.000000	96.340
487.000000	96.344
494.000000	96.344
500.000000	96.345
508.000000	96.354
515.000000	96.352
522.000000	96.361
530.000000	96.374
538.000000	96.385
545.000000	96.385
552.000000	96.395
560.000000	96.412
570.000000	96.439
580.000000	96.452
590.000000	96.470
600.000000	96.505
608.000000	96.495
615.000000	96.517
622.000000	96.519
630.000000	96.519
640.000000	96.554
650.000000	96.581
660.000000	96.598
670.000000	96.621
680.000000	96.599
690.000000	96.624
700.000000	96.662
710.000000	96.640
720.000000	96.686
730.000000	96.770
740.000000	96.841
750.000000	96.923
762.000000	96.953
775.000000	97.046
788.000000	97.134
800.000000	97.166
812.000000	97.200
825.000000	97.230
838.000000	97.325
850.000000	97.418
862.000000	97.525
875.000000	97.571
885.000000	97.566
900.000000	97.636
912.000000	97.691
925.000000	97.765
938.000000	97.830
950.000000	97.900
962.000000	98.047
975.000000	98.126
988.000000	98.107
1000.000000	98.165
1015.000000	98.204
1030.000000	98.310
1044.000000	98.453
1060.000000	98.585
1075.000000	98.666
1090.000000	98.798
1106.000000	98.838
1120.000000	98.961
1138.000000	99.137
1150.000000	99.190
1172.000000	99.274
1180.000000	99.247
1206.000000	99.429
1220.000000	99.599
1241.000000	99.647
1250.000000	99.510
1265.000000	99.768
1280.000000	99.834
1315.000000	100.170
1320.000000	100.278
1340.000000	100.260
1360.000000	100.370
1380.000000	100.506
1400.000000	100.692
1430.000000	100.670
1450.000000	100.621
1475.000000	100.861
1500.000000	100.729
1525.000000	101.177
1550.000000	101.309
1575.000000	101.699
1600.000000	101.855
1625.000000	101.998
1650.000000	102.399
1675.000000	102.490
1700.000000	102.418
1725.000000	102.206
1750.000000	102.551
1775.000000	102.396
1800.000000	102.466
1825.000000	103.156
1850.000000	102.443
1875.000000	102.758
1900.000000	102.687
1925.000000	102.493
1950.000000	102.948
1975.000000	102.622
2000.000000	102.810
2030.000000	103.174
2060.000000	102.485
2090.000000	101.295
2120.000000	102.175
2140.000000	103.361
2180.000000	103.264
2200.000000	103.733
2240.000000	103.779
2270.000000	103.662
2300.000000	103.939
2330.000000	104.464
2360.000000	105.481
2400.000000	105.558
2430.000000	106.315
2470.000000	106.633
2500.000000	106.780
2540.000000	107.005
2580.000000	107.647
2620.000000	107.715
2650.000000	107.628
2690.000000	108.066
2720.000000	108.679
2760.000000	108.384
2800.000000	108.795
2850.000000	109.376
2900.000000	109.329
2950.000000	109.189
3000.000000	109.330
3040.000000	109.295
3070.000000	109.537
3110.000000	109.106
3150.000000	108.842
3200.000000	108.262
3250.000000	107.758
3300.000000	107.165
3350.000000	106.645
3400.000000	106.410
3450.000000	105.976
3500.000000	105.548
3550.000000	105.216
3600.000000	104.887
3650.000000	104.622
3700.000000	104.404
3750.000000	104.208
3820.000000	103.902
3870.000000	103.554
3950.000000	103.045
4000.000000	102.956
4060.000000	102.704
4120.000000	102.674
4180.000000	102.477
4250.000000	102.404
4310.000000	102.232
4370.000000	102.117
4440.000000	101.887
4500.000000	101.839
4550.000000	101.755
4620.000000	101.607
4680.000000	101.433
4750.000000	101.177
4820.000000	101.178
4870.000000	101.102
4940.000000	101.200
5000.000000	101.357
5080.000000	101.788
5150.000000	102.185
5220.000000	102.755
5300.000000	103.457
5380.000000	104.596
5450.000000	105.435
5520.000000	106.327
5600.000000	106.989
5700.000000	107.339
5800.000000	106.940
5900.000000	106.154
6000.000000	105.198
6080.000000	104.597
6150.000000	104.209
6220.000000	103.889
6300.000000	103.485
6400.000000	103.233
6500.000000	103.012
6600.000000	102.801
6700.000000	102.743
6800.000000	102.571
6900.000000	102.601
7000.000000	102.646
7100.000000	102.837
7200.000000	103.135
7300.000000	103.343
7400.000000	103.450
7500.000000	103.470
7620.000000	103.522
7750.000000	103.559
7880.000000	103.582
8000.000000	103.687
8120.000000	103.698
8250.000000	103.856
8380.000000	104.080
8500.000000	104.203
8620.000000	103.913
8750.000000	102.850
8850.000000	101.564
9000.000000	99.080
9120.000000	97.017
9250.000000	94.741
9380.000000	92.588
9500.000000	90.828
9620.000000	89.190
9750.000000	87.872
9880.000000	86.994
10000.000000	86.206
10150.000000	85.740
10300.000000	86.173
10440.000000	87.695
10600.000000	90.469
10750.000000	93.055
10900.000000	95.308
11060.000000	96.918
11200.000000	97.059
11380.000000	96.793
11500.000000	96.466
11720.000000	95.389
11800.000000	95.035
12060.000000	94.100
12200.000000	93.447
12410.000000	93.345
12500.000000	93.666
12650.000000	94.012
12800.000000	94.219
13150.000000	94.117
13200.000000	93.925
13400.000000	92.170
13600.000000	90.256
13800.000000	89.209
14000.000000	88.802
14300.000000	88.629
14500.000000	88.594
14750.000000	88.082
15000.000000	86.235
15250.000000	84.755
15500.000000	84.623
15750.000000	84.950
16000.000000	84.534
16250.000000	84.593
16500.000000	85.738
16750.000000	88.500
17000.000000	92.017
17250.000000	91.932
17500.000000	89.555
17750.000000	87.431
18000.000000	85.727
18250.000000	84.067
18500.000000	82.671
18750.000000	81.187
19000.000000	77.325
19250.000000	74.536
19500.000000	77.455
19750.000000	78.739
20000.000000	76.654
