* Measurement data measured by REW V5.31.1
* Source: Frequency response averaged data
* Format: Averaged data produced from the rms magnitudes of R 204, R 205, R 206, R 207
* Dated: 31/07/2024 01:15:49 AM
* REW Settings:
*  C-weighting compensation: Off
*  Target level: 75.0 dB
* Note: Averaged data produced from the rms magnitudes of R 204, R 205, R 206, R 207
* Measurement: R AVG
* Smoothing: None
* Frequency Step: 1/48 octave
* Start Frequency: 20.000 Hz
*
* Freq(Hz)	SPL(dB)
20.000000	64.956
20.299999	64.605
20.600000	64.118
20.900000	63.786
21.200001	63.919
21.400000	64.294
21.799999	65.296
22.000000	65.752
22.400000	66.381
22.700001	66.589
23.000000	66.666
23.299999	66.741
23.600000	66.920
24.000000	67.356
24.299999	67.734
24.700001	68.147
25.000000	68.345
25.400000	68.499
25.799999	68.648
26.200001	68.901
26.500000	69.168
26.900000	69.575
27.200001	69.882
27.600000	70.253
28.000000	70.560
28.500000	70.847
29.000000	71.066
29.500000	71.299
30.000000	71.605
30.400000	71.878
30.700001	72.072
31.100000	72.308
31.500000	72.552
32.000000	72.939
32.500000	73.398
33.000000	73.781
33.500000	73.978
34.000000	74.038
34.500000	74.126
35.000000	74.348
35.500000	74.648
36.000000	74.925
36.500000	75.174
37.000000	75.457
37.500000	75.791
38.200001	76.223
38.700001	76.464
39.500000	76.843
40.000000	77.119
40.599998	77.442
41.200001	77.714
41.799999	77.949
42.500000	78.224
43.099998	78.500
43.700001	78.838
44.400002	79.251
45.000000	79.535
45.500000	79.711
46.200001	79.931
46.799999	80.142
47.500000	80.428
48.200001	80.765
48.700001	81.021
49.400002	81.353
50.000000	81.604
50.799999	81.934
51.500000	82.247
52.200001	82.582
53.000000	82.928
53.799999	83.209
54.500000	83.484
55.200001	83.772
56.000000	84.034
57.000000	84.387
58.000000	84.707
59.000000	85.047
60.000000	85.565
60.799999	85.804
61.500000	85.912
62.200001	86.045
63.000000	86.207
64.000000	86.484
65.000000	86.902
66.000000	87.309
67.000000	87.745
68.000000	88.174
69.000000	88.603
70.000000	89.017
71.000000	89.405
72.000000	89.800
73.000000	90.153
74.000000	90.402
75.000000	90.522
76.199997	90.701
77.500000	91.145
78.800003	91.612
80.000000	92.016
81.199997	92.397
82.500000	92.783
83.800003	93.163
85.000000	93.457
86.199997	93.749
87.500000	94.043
88.500000	94.251
90.000000	94.546
91.199997	94.768
92.500000	94.986
93.800003	95.201
95.000000	95.359
96.199997	95.510
97.500000	95.652
98.800003	95.776
100.000000	95.878
101.500000	95.987
103.000000	96.088
104.400002	96.162
106.000000	96.229
107.500000	96.271
109.000000	96.305
110.599998	96.302
112.000000	96.317
113.800003	96.296
115.000000	96.282
117.199997	96.227
118.000000	96.129
120.599998	96.102
122.000000	96.039
124.099998	95.964
125.000000	95.932
126.500000	95.847
128.000000	95.801
131.500000	95.645
132.000000	95.627
134.000000	95.533
136.000000	95.435
138.000000	95.377
140.000000	95.264
143.000000	95.146
145.000000	95.057
147.500000	94.978
150.000000	94.849
152.500000	94.762
155.000000	94.699
157.500000	94.629
160.000000	94.549
162.500000	94.454
165.000000	94.370
167.500000	94.347
170.000000	94.310
172.500000	94.266
175.000000	94.240
177.500000	94.129
180.000000	94.006
182.500000	93.970
185.000000	93.932
187.500000	93.903
190.000000	93.863
192.500000	93.831
195.000000	93.790
197.500000	93.794
200.000000	93.762
203.000000	93.767
206.000000	93.788
209.000000	93.801
212.000000	93.828
214.000000	93.821
218.000000	93.887
220.000000	93.927
224.000000	93.997
227.000000	94.057
230.000000	94.053
233.000000	94.051
236.000000	94.059
240.000000	93.954
243.000000	93.861
247.000000	93.651
250.000000	93.516
254.000000	93.371
258.000000	93.269
262.000000	93.191
265.000000	93.131
269.000000	93.046
272.000000	92.974
276.000000	92.908
280.000000	92.827
285.000000	92.756
290.000000	92.725
295.000000	92.723
300.000000	92.715
304.000000	92.738
307.000000	92.754
311.000000	92.812
315.000000	92.776
320.000000	92.792
325.000000	92.753
330.000000	92.695
335.000000	92.670
340.000000	92.668
345.000000	92.678
350.000000	92.660
355.000000	92.752
360.000000	92.689
365.000000	92.707
370.000000	92.748
375.000000	92.778
382.000000	92.817
387.000000	92.887
395.000000	92.916
400.000000	92.889
406.000000	92.905
412.000000	92.893
418.000000	92.896
425.000000	92.907
431.000000	92.929
437.000000	92.940
444.000000	92.942
450.000000	92.940
455.000000	92.973
462.000000	93.059
468.000000	93.009
475.000000	93.044
482.000000	93.074
487.000000	93.074
494.000000	93.114
500.000000	93.094
508.000000	93.113
515.000000	93.159
522.000000	93.145
530.000000	93.155
538.000000	93.220
545.000000	93.229
552.000000	93.214
560.000000	93.194
570.000000	93.238
580.000000	93.288
590.000000	93.305
600.000000	93.361
608.000000	93.371
615.000000	93.420
622.000000	93.474
630.000000	93.549
640.000000	93.611
650.000000	93.711
660.000000	93.773
670.000000	93.837
680.000000	93.828
690.000000	93.532
700.000000	93.251
710.000000	92.970
720.000000	93.151
730.000000	93.507
740.000000	93.728
750.000000	93.959
762.000000	94.111
775.000000	94.267
788.000000	94.394
800.000000	94.448
812.000000	94.461
825.000000	94.625
838.000000	94.747
850.000000	94.840
862.000000	94.990
875.000000	95.102
885.000000	95.125
900.000000	95.162
912.000000	95.273
925.000000	95.499
938.000000	95.489
950.000000	95.606
962.000000	95.762
975.000000	95.644
988.000000	95.584
1000.000000	95.737
1015.000000	95.754
1030.000000	95.946
1044.000000	96.033
1060.000000	96.207
1075.000000	96.356
1090.000000	96.277
1106.000000	96.360
1120.000000	96.401
1138.000000	96.356
1150.000000	96.563
1172.000000	96.561
1180.000000	96.366
1206.000000	96.572
1220.000000	96.879
1241.000000	96.822
1250.000000	96.601
1265.000000	96.850
1280.000000	96.552
1315.000000	96.921
1320.000000	96.977
1340.000000	97.033
1360.000000	96.885
1380.000000	96.687
1400.000000	96.452
1430.000000	96.644
1450.000000	96.330
1475.000000	96.428
1500.000000	96.519
1525.000000	96.020
1550.000000	96.319
1575.000000	95.903
1600.000000	95.513
1625.000000	95.233
1650.000000	95.292
1675.000000	95.236
1700.000000	94.321
1725.000000	93.480
1750.000000	93.808
1775.000000	94.076
1800.000000	93.221
1825.000000	93.475
1850.000000	94.098
1875.000000	93.411
1900.000000	94.213
1925.000000	93.651
1950.000000	93.165
1975.000000	93.578
2000.000000	94.277
2030.000000	92.945
2060.000000	93.946
2090.000000	94.094
2120.000000	94.486
2140.000000	94.786
2180.000000	94.697
2200.000000	94.941
2240.000000	95.424
2270.000000	96.002
2300.000000	95.582
2330.000000	95.912
2360.000000	95.610
2400.000000	96.344
2430.000000	96.749
2470.000000	96.937
2500.000000	97.645
2540.000000	97.941
2580.000000	99.295
2620.000000	99.283
2650.000000	99.510
2690.000000	100.431
2720.000000	100.635
2760.000000	101.399
2800.000000	102.005
2850.000000	102.948
2900.000000	103.902
2950.000000	104.473
3000.000000	105.617
3040.000000	105.997
3070.000000	106.883
3110.000000	107.804
3150.000000	109.049
3200.000000	108.726
3250.000000	106.660
3300.000000	105.795
3350.000000	105.563
3400.000000	105.730
3450.000000	105.706
3500.000000	105.779
3550.000000	105.810
3600.000000	105.060
3650.000000	105.522
3700.000000	104.896
3750.000000	105.086
3820.000000	104.804
3870.000000	104.501
3950.000000	104.129
4000.000000	103.657
4060.000000	104.159
4120.000000	103.614
4180.000000	103.748
4250.000000	103.799
4310.000000	103.917
4370.000000	103.744
4440.000000	104.468
4500.000000	104.074
4550.000000	104.718
4620.000000	104.484
4680.000000	104.155
4750.000000	104.655
4820.000000	105.256
4870.000000	105.310
4940.000000	105.990
5000.000000	106.114
5080.000000	106.286
5150.000000	105.698
5220.000000	104.989
5300.000000	102.794
5380.000000	100.788
5450.000000	97.124
5520.000000	94.922
5600.000000	90.530
5700.000000	90.606
5800.000000	94.960
5900.000000	97.845
6000.000000	99.237
6080.000000	99.916
6150.000000	100.304
6220.000000	100.539
6300.000000	100.637
6400.000000	100.866
6500.000000	100.763
6600.000000	100.860
6700.000000	100.428
6800.000000	99.808
6900.000000	99.154
7000.000000	98.606
7100.000000	98.011
7200.000000	97.411
7300.000000	96.671
7400.000000	95.990
7500.000000	95.382
7620.000000	94.865
7750.000000	95.121
7880.000000	95.344
8000.000000	95.743
8120.000000	96.548
8250.000000	97.580
8380.000000	98.655
8500.000000	99.032
8620.000000	98.638
8750.000000	97.455
8850.000000	96.440
9000.000000	95.000
9120.000000	93.885
9250.000000	93.063
9380.000000	92.075
9500.000000	91.294
9620.000000	90.868
9750.000000	90.795
9880.000000	91.462
10000.000000	92.269
10150.000000	93.255
10300.000000	94.194
10440.000000	94.636
10600.000000	95.042
10750.000000	95.227
10900.000000	95.480
11060.000000	95.798
11200.000000	95.954
11380.000000	96.208
11500.000000	96.714
11720.000000	97.564
11800.000000	97.430
12060.000000	95.499
12200.000000	94.725
12410.000000	95.631
12500.000000	96.517
12650.000000	97.781
12800.000000	98.836
13150.000000	99.249
13200.000000	98.783
13400.000000	97.443
13600.000000	96.591
13800.000000	95.566
14000.000000	94.674
14300.000000	92.375
14500.000000	90.614
14750.000000	90.309
15000.000000	91.737
15250.000000	91.186
15500.000000	89.162
15750.000000	87.434
16000.000000	87.751
16250.000000	87.060
16500.000000	85.923
16750.000000	86.936
17000.000000	88.630
17250.000000	89.444
17500.000000	90.129
17750.000000	90.380
18000.000000	90.552
18250.000000	90.583
18500.000000	88.664
18750.000000	84.647
19000.000000	86.881
19250.000000	90.131
19500.000000	89.974
19750.000000	88.377
20000.000000	87.298
