* Measurement data measured by REW V5.31.1
* Source: Frequency response averaged data
* Format: Averaged data produced from the rms magnitudes of R 262, R 263, R 264, R 265, R 266
* Dated: 4/08/2024 01:17:27 AM
* REW Settings:
*  C-weighting compensation: Off
*  Target level: 75.0 dB
* Note: Averaged data produced from the rms magnitudes of R 262, R 263, R 264, R 265, R 266
* Measurement: R AVG
* Smoothing: None
* Frequency Step: 1/48 octave
* Start Frequency: 20.000 Hz
*
* Freq(Hz)	SPL(dB)
20.000000	78.801
20.299999	78.923
20.600000	79.044
20.900000	79.200
21.200001	79.410
21.400000	79.575
21.799999	79.928
22.000000	80.094
22.400000	80.382
22.700001	80.556
23.000000	80.712
23.299999	80.871
23.600000	81.048
24.000000	81.310
24.299999	81.506
24.700001	81.737
25.000000	81.882
25.400000	82.054
25.799999	82.237
26.200001	82.452
26.500000	82.631
26.900000	82.864
27.200001	83.021
27.600000	83.200
28.000000	83.355
28.500000	83.547
29.000000	83.754
29.500000	83.960
30.000000	84.145
30.400000	84.280
30.700001	84.385
31.100000	84.544
31.500000	84.736
32.000000	85.012
32.500000	85.283
33.000000	85.491
33.500000	85.615
34.000000	85.695
34.500000	85.810
35.000000	86.002
35.500000	86.235
36.000000	86.428
36.500000	86.543
37.000000	86.619
37.500000	86.725
38.200001	86.952
38.700001	87.100
39.500000	87.234
40.000000	87.316
40.599998	87.483
41.200001	87.683
41.799999	87.842
42.500000	87.978
43.099998	88.105
43.700001	88.244
44.400002	88.381
45.000000	88.482
45.500000	88.573
46.200001	88.712
46.799999	88.818
47.500000	88.924
48.200001	89.037
48.700001	89.121
49.400002	89.217
50.000000	89.277
50.799999	89.361
51.500000	89.453
52.200001	89.547
53.000000	89.643
53.799999	89.745
54.500000	89.850
55.200001	89.956
56.000000	90.065
57.000000	90.208
58.000000	90.334
59.000000	90.449
60.000000	90.607
60.799999	90.696
61.500000	90.747
62.200001	90.810
63.000000	90.886
64.000000	90.990
65.000000	91.142
66.000000	91.259
67.000000	91.355
68.000000	91.462
69.000000	91.554
70.000000	91.659
71.000000	91.738
72.000000	91.815
73.000000	91.893
74.000000	91.950
75.000000	92.006
76.199997	92.057
77.500000	92.110
78.800003	92.162
80.000000	92.236
81.199997	92.272
82.500000	92.332
83.800003	92.373
85.000000	92.407
86.199997	92.431
87.500000	92.482
88.500000	92.513
90.000000	92.520
91.199997	92.557
92.500000	92.588
93.800003	92.628
95.000000	92.645
96.199997	92.661
97.500000	92.663
98.800003	92.691
100.000000	92.688
101.500000	92.711
103.000000	92.730
104.400002	92.762
106.000000	92.801
107.500000	92.826
109.000000	92.846
110.599998	92.883
112.000000	92.924
113.800003	92.974
115.000000	93.002
117.199997	93.067
118.000000	93.086
120.599998	93.135
122.000000	93.178
124.099998	93.197
125.000000	93.213
126.500000	93.217
128.000000	93.231
131.500000	93.280
132.000000	93.282
134.000000	93.336
136.000000	93.351
138.000000	93.392
140.000000	93.420
143.000000	93.451
145.000000	93.453
147.500000	93.497
150.000000	93.527
152.500000	93.563
155.000000	93.599
157.500000	93.630
160.000000	93.667
162.500000	93.693
165.000000	93.663
167.500000	93.739
170.000000	93.731
172.500000	93.760
175.000000	93.774
177.500000	93.789
180.000000	93.798
182.500000	93.812
185.000000	93.831
187.500000	93.851
190.000000	93.866
192.500000	93.889
195.000000	93.892
197.500000	93.909
200.000000	93.909
203.000000	93.932
206.000000	93.960
209.000000	93.956
212.000000	93.958
214.000000	93.972
218.000000	93.988
220.000000	93.980
224.000000	93.989
227.000000	93.980
230.000000	93.980
233.000000	93.987
236.000000	93.992
240.000000	94.029
243.000000	94.042
247.000000	94.062
250.000000	94.078
254.000000	94.121
258.000000	94.161
262.000000	94.188
265.000000	94.200
269.000000	94.207
272.000000	94.220
276.000000	94.217
280.000000	94.224
285.000000	94.233
290.000000	94.261
295.000000	94.324
300.000000	94.385
304.000000	94.422
307.000000	94.445
311.000000	94.480
315.000000	94.514
320.000000	94.544
325.000000	94.569
330.000000	94.607
335.000000	94.626
340.000000	94.662
345.000000	94.721
350.000000	94.746
355.000000	94.791
360.000000	94.822
365.000000	94.846
370.000000	94.892
375.000000	94.919
382.000000	94.971
387.000000	95.012
395.000000	95.042
400.000000	95.038
406.000000	95.049
412.000000	95.009
418.000000	95.066
425.000000	95.117
431.000000	95.194
437.000000	95.230
444.000000	95.280
450.000000	95.272
455.000000	95.308
462.000000	95.408
468.000000	95.364
475.000000	95.398
482.000000	95.441
487.000000	95.472
494.000000	95.502
500.000000	95.508
508.000000	95.485
515.000000	95.554
522.000000	95.522
530.000000	95.545
538.000000	95.624
545.000000	95.618
552.000000	95.607
560.000000	95.624
570.000000	95.710
580.000000	95.810
590.000000	95.852
600.000000	95.919
608.000000	95.939
615.000000	95.965
622.000000	96.053
630.000000	96.109
640.000000	96.049
650.000000	96.184
660.000000	96.282
670.000000	96.248
680.000000	96.200
690.000000	96.275
700.000000	96.421
710.000000	96.279
720.000000	96.465
730.000000	96.663
740.000000	96.615
750.000000	96.703
762.000000	96.591
775.000000	96.553
788.000000	96.530
800.000000	96.280
812.000000	96.173
825.000000	96.193
838.000000	96.170
850.000000	96.200
862.000000	96.153
875.000000	95.946
885.000000	95.635
900.000000	95.463
912.000000	95.519
925.000000	95.376
938.000000	95.247
950.000000	95.114
962.000000	94.786
975.000000	94.547
988.000000	94.707
1000.000000	94.835
1015.000000	94.761
1030.000000	94.778
1044.000000	94.810
1060.000000	94.796
1075.000000	94.784
1090.000000	94.752
1106.000000	94.942
1120.000000	94.762
1138.000000	94.969
1150.000000	94.994
1172.000000	94.781
1180.000000	94.824
1206.000000	94.857
1220.000000	94.935
1241.000000	94.887
1250.000000	94.935
1265.000000	95.045
1280.000000	94.896
1315.000000	95.155
1320.000000	95.095
1340.000000	95.201
1360.000000	95.261
1380.000000	95.149
1400.000000	95.543
1430.000000	95.636
1450.000000	95.736
1475.000000	96.104
1500.000000	96.371
1525.000000	96.587
1550.000000	96.680
1575.000000	97.220
1600.000000	97.497
1625.000000	97.476
1650.000000	98.068
1675.000000	98.145
1700.000000	98.062
1725.000000	98.170
1750.000000	98.224
1775.000000	98.242
1800.000000	98.340
1825.000000	98.798
1850.000000	98.622
1875.000000	98.781
1900.000000	99.095
1925.000000	99.174
1950.000000	99.457
1975.000000	99.934
2000.000000	100.160
2030.000000	100.465
2060.000000	100.814
2090.000000	101.328
2120.000000	102.006
2140.000000	102.387
2180.000000	102.896
2200.000000	103.187
2240.000000	103.640
2270.000000	104.124
2300.000000	104.529
2330.000000	104.983
2360.000000	105.110
2400.000000	106.108
2430.000000	106.547
2470.000000	106.852
2500.000000	107.106
2540.000000	107.642
2580.000000	108.367
2620.000000	108.531
2650.000000	108.977
2690.000000	109.542
2720.000000	109.870
2760.000000	110.119
2800.000000	110.454
2850.000000	110.616
2900.000000	111.098
2950.000000	110.975
3000.000000	111.080
3040.000000	110.959
3070.000000	110.756
3110.000000	110.672
3150.000000	110.462
3200.000000	110.099
3250.000000	109.446
3300.000000	108.787
3350.000000	108.413
3400.000000	107.859
3450.000000	107.607
3500.000000	107.491
3550.000000	107.570
3600.000000	107.362
3650.000000	107.469
3700.000000	107.427
3750.000000	107.306
3820.000000	106.809
3870.000000	106.627
3950.000000	106.207
4000.000000	105.975
4060.000000	105.642
4120.000000	105.388
4180.000000	105.121
4250.000000	104.950
4310.000000	104.754
4370.000000	104.706
4440.000000	104.425
4500.000000	104.306
4550.000000	104.221
4620.000000	104.102
4680.000000	104.169
4750.000000	104.174
4820.000000	104.417
4870.000000	104.511
4940.000000	104.665
5000.000000	104.766
5080.000000	104.381
5150.000000	104.404
5220.000000	103.921
5300.000000	103.204
5380.000000	102.532
5450.000000	101.838
5520.000000	101.398
5600.000000	100.743
5700.000000	99.609
5800.000000	98.747
5900.000000	97.150
6000.000000	96.709
6080.000000	96.318
6150.000000	96.943
6220.000000	96.667
6300.000000	96.963
6400.000000	97.536
6500.000000	97.301
6600.000000	97.137
6700.000000	97.340
6800.000000	97.554
6900.000000	97.822
7000.000000	97.991
7100.000000	98.541
7200.000000	99.085
7300.000000	99.926
7400.000000	100.908
7500.000000	102.057
7620.000000	102.956
7750.000000	103.054
7880.000000	102.682
8000.000000	102.076
8120.000000	101.534
8250.000000	101.127
8380.000000	100.662
8500.000000	100.182
8620.000000	99.867
8750.000000	99.865
8850.000000	100.044
9000.000000	100.050
9120.000000	99.439
9250.000000	98.072
9380.000000	97.095
9500.000000	96.854
9620.000000	96.874
9750.000000	97.248
9880.000000	97.838
10000.000000	98.330
10150.000000	98.596
10300.000000	98.569
10440.000000	98.232
10600.000000	97.933
10750.000000	97.938
10900.000000	98.554
11060.000000	99.676
11200.000000	100.555
11380.000000	100.754
11500.000000	100.149
11720.000000	97.647
11800.000000	96.439
12060.000000	92.388
12200.000000	90.742
12410.000000	90.398
12500.000000	91.086
12650.000000	92.668
12800.000000	94.566
13150.000000	97.509
13200.000000	97.553
13400.000000	97.004
13600.000000	96.284
13800.000000	95.606
14000.000000	95.067
14300.000000	93.095
14500.000000	90.797
14750.000000	87.108
15000.000000	84.488
15250.000000	82.133
15500.000000	77.672
15750.000000	76.867
16000.000000	80.662
16250.000000	82.384
16500.000000	82.228
16750.000000	80.808
17000.000000	79.168
17250.000000	80.700
17500.000000	80.540
17750.000000	77.132
18000.000000	75.462
18250.000000	75.618
18500.000000	75.908
18750.000000	76.849
19000.000000	78.014
19250.000000	77.776
19500.000000	77.231
19750.000000	75.226
20000.000000	74.511
