* Measurement data measured by REW V5.31.1
* Source: Frequency response averaged data
* Format: Averaged data produced from the rms magnitudes of R 110, R 879, R 880, R 881
* Dated: 1/08/2025 04:53:44 PM
* REW Settings:
*  C-weighting compensation: Off
*  Target level: 75.0 dB
* Note: Averaged data produced from the rms magnitudes of R 110, R 879, R 880, R 881
* Measurement: R AVG 110
* Smoothing: None
* Frequency Step: 1/48 octave
* Start Frequency: 20.000 Hz
*
* Freq(Hz)	SPL(dB)
20.000000	72.062
20.299999	72.221
20.600000	72.415
20.900000	72.637
21.200001	72.874
21.400000	73.025
21.799999	73.291
22.000000	73.403
22.400000	73.606
22.700001	73.786
23.000000	74.028
23.299999	74.312
23.600000	74.588
24.000000	74.848
24.299999	74.926
24.700001	74.925
25.000000	74.948
25.400000	75.131
25.799999	75.466
26.200001	75.768
26.500000	75.879
26.900000	75.880
27.200001	75.868
27.600000	75.995
28.000000	76.311
28.500000	76.648
29.000000	76.566
29.500000	76.262
30.000000	76.535
30.400000	77.317
30.700001	77.960
31.100000	78.527
31.500000	78.618
32.000000	78.193
32.500000	77.810
33.000000	78.114
33.500000	78.770
34.000000	79.083
34.500000	78.886
35.000000	78.540
35.500000	78.586
36.000000	79.059
36.500000	79.573
37.000000	79.900
37.500000	80.064
38.200001	80.104
38.700001	80.018
39.500000	80.070
40.000000	80.408
40.599998	80.877
41.200001	81.080
41.799999	81.050
42.500000	81.067
43.099998	81.280
43.700001	81.610
44.400002	82.017
45.000000	82.267
45.500000	82.389
46.200001	82.584
46.799999	82.827
47.500000	82.945
48.200001	82.848
48.700001	82.895
49.400002	83.285
50.000000	83.640
50.799999	83.861
51.500000	83.992
52.200001	84.199
53.000000	84.420
53.799999	84.569
54.500000	84.734
55.200001	84.964
56.000000	85.217
57.000000	85.448
58.000000	85.647
59.000000	86.099
60.000000	86.379
60.799999	86.273
61.500000	86.345
62.200001	86.611
63.000000	86.710
64.000000	86.563
65.000000	86.772
66.000000	87.134
67.000000	87.278
68.000000	87.331
69.000000	87.352
70.000000	87.299
71.000000	87.253
72.000000	87.190
73.000000	87.122
74.000000	87.234
75.000000	87.418
76.199997	87.516
77.500000	87.693
78.800003	87.655
80.000000	87.662
81.199997	87.705
82.500000	87.911
83.800003	87.972
85.000000	87.930
86.199997	88.155
87.500000	88.297
88.500000	88.381
90.000000	88.214
91.199997	88.266
92.500000	88.246
93.800003	88.201
95.000000	88.224
96.199997	88.206
97.500000	88.199
98.800003	88.160
100.000000	88.085
101.500000	88.083
103.000000	87.935
104.400002	87.765
106.000000	87.781
107.500000	87.803
109.000000	87.714
110.599998	87.732
112.000000	87.621
113.800003	87.484
115.000000	87.356
117.199997	87.350
118.000000	87.365
120.599998	87.295
122.000000	87.136
124.099998	87.044
125.000000	86.982
126.500000	86.892
128.000000	86.890
131.500000	86.697
132.000000	86.650
134.000000	86.635
136.000000	86.493
138.000000	86.357
140.000000	86.316
143.000000	86.184
145.000000	86.038
147.500000	85.992
150.000000	85.921
152.500000	85.737
155.000000	85.698
157.500000	85.567
160.000000	85.461
162.500000	85.409
165.000000	85.333
167.500000	85.200
170.000000	85.181
172.500000	85.102
175.000000	85.272
177.500000	84.991
180.000000	84.922
182.500000	84.863
185.000000	84.719
187.500000	84.577
190.000000	84.512
192.500000	84.631
195.000000	84.637
197.500000	84.570
200.000000	84.535
203.000000	84.489
206.000000	84.492
209.000000	84.531
212.000000	84.510
214.000000	84.566
218.000000	84.775
220.000000	84.641
224.000000	84.810
227.000000	84.805
230.000000	84.731
233.000000	84.776
236.000000	84.714
240.000000	84.635
243.000000	84.707
247.000000	84.683
250.000000	84.683
254.000000	84.777
258.000000	84.678
262.000000	84.724
265.000000	84.695
269.000000	84.665
272.000000	84.562
276.000000	84.566
280.000000	84.572
285.000000	84.485
290.000000	84.478
295.000000	84.472
300.000000	84.444
304.000000	84.498
307.000000	84.418
311.000000	84.426
315.000000	84.271
320.000000	84.246
325.000000	84.282
330.000000	84.234
335.000000	84.181
340.000000	84.347
345.000000	84.298
350.000000	84.286
355.000000	84.226
360.000000	84.234
365.000000	84.149
370.000000	84.212
375.000000	84.138
382.000000	84.232
387.000000	84.187
395.000000	84.165
400.000000	84.188
406.000000	84.213
412.000000	84.192
418.000000	84.299
425.000000	84.350
431.000000	84.308
437.000000	84.292
444.000000	84.331
450.000000	84.418
455.000000	84.336
462.000000	84.343
468.000000	84.580
475.000000	84.591
482.000000	84.602
487.000000	84.631
494.000000	84.670
500.000000	84.689
508.000000	84.630
515.000000	84.766
522.000000	84.760
530.000000	84.698
538.000000	84.855
545.000000	84.804
552.000000	84.830
560.000000	84.963
570.000000	84.975
580.000000	85.052
590.000000	85.140
600.000000	85.208
608.000000	85.336
615.000000	85.376
622.000000	85.414
630.000000	85.460
640.000000	85.549
650.000000	85.675
660.000000	85.712
670.000000	85.747
680.000000	85.903
690.000000	85.825
700.000000	86.095
710.000000	85.999
720.000000	86.094
730.000000	86.355
740.000000	86.369
750.000000	86.415
762.000000	86.522
775.000000	86.542
788.000000	86.684
800.000000	86.707
812.000000	86.777
825.000000	86.760
838.000000	86.791
850.000000	86.915
862.000000	87.011
875.000000	87.189
885.000000	87.115
900.000000	87.133
912.000000	87.224
925.000000	87.258
938.000000	87.236
950.000000	87.143
962.000000	87.175
975.000000	87.356
988.000000	87.158
1000.000000	87.092
1015.000000	87.047
1030.000000	86.917
1044.000000	86.988
1060.000000	87.185
1075.000000	87.187
1090.000000	87.457
1106.000000	87.460
1120.000000	87.396
1138.000000	87.591
1150.000000	87.497
1172.000000	87.581
1180.000000	87.687
1206.000000	87.652
1220.000000	87.765
1241.000000	87.930
1250.000000	87.961
1265.000000	87.905
1280.000000	88.129
1315.000000	88.498
1320.000000	88.555
1340.000000	88.715
1360.000000	88.732
1380.000000	88.834
1400.000000	88.853
1430.000000	89.176
1450.000000	89.019
1475.000000	89.299
1500.000000	89.392
1525.000000	89.003
1550.000000	89.286
1575.000000	89.825
1600.000000	89.914
1625.000000	89.840
1650.000000	90.161
1675.000000	90.512
1700.000000	90.364
1725.000000	90.789
1750.000000	90.887
1775.000000	90.980
1800.000000	91.117
1825.000000	91.778
1850.000000	91.498
1875.000000	91.569
1900.000000	91.271
1925.000000	91.945
1950.000000	91.783
1975.000000	92.153
2000.000000	92.604
2030.000000	93.315
2060.000000	94.045
2090.000000	93.390
2120.000000	93.824
2140.000000	94.934
2180.000000	94.774
2200.000000	95.189
2240.000000	95.730
2270.000000	96.070
2300.000000	96.178
2330.000000	96.199
2360.000000	96.265
2400.000000	96.080
2430.000000	96.161
2470.000000	96.176
2500.000000	96.299
2540.000000	96.421
2580.000000	96.324
2620.000000	95.999
2650.000000	95.701
2690.000000	95.487
2720.000000	95.141
2760.000000	94.433
2800.000000	93.796
2850.000000	93.324
2900.000000	92.840
2950.000000	92.622
3000.000000	92.498
3040.000000	92.098
3070.000000	91.877
3110.000000	91.456
3150.000000	90.995
3200.000000	90.748
3250.000000	90.255
3300.000000	90.829
3350.000000	91.041
3400.000000	91.354
3450.000000	91.553
3500.000000	92.291
3550.000000	93.075
3600.000000	93.444
3650.000000	94.047
3700.000000	94.384
3750.000000	94.720
3820.000000	95.014
3870.000000	95.176
3950.000000	95.393
4000.000000	95.235
4060.000000	95.200
4120.000000	95.001
4180.000000	94.796
4250.000000	94.295
4310.000000	94.210
4370.000000	94.043
4440.000000	93.900
4500.000000	93.675
4550.000000	93.544
4620.000000	93.411
4680.000000	93.180
4750.000000	93.190
4820.000000	93.078
4870.000000	93.075
4940.000000	93.299
5000.000000	93.766
5080.000000	94.130
5150.000000	94.692
5220.000000	95.513
5300.000000	96.522
5380.000000	97.566
5450.000000	98.363
5520.000000	99.145
5600.000000	99.759
5700.000000	99.769
5800.000000	99.050
5900.000000	97.758
6000.000000	96.392
6080.000000	95.360
6150.000000	94.584
6220.000000	93.878
6300.000000	93.227
6400.000000	92.839
6500.000000	92.527
6600.000000	92.398
6700.000000	92.486
6800.000000	92.385
6900.000000	92.451
7000.000000	92.442
7100.000000	92.366
7200.000000	92.416
7300.000000	92.456
7400.000000	92.477
7500.000000	92.531
7620.000000	92.519
7750.000000	92.433
7880.000000	92.027
8000.000000	91.523
8120.000000	91.001
8250.000000	90.422
8380.000000	89.431
8500.000000	88.124
8620.000000	86.645
8750.000000	84.928
8850.000000	84.039
9000.000000	84.131
9120.000000	85.103
9250.000000	86.096
9380.000000	86.030
9500.000000	85.204
9620.000000	84.103
9750.000000	82.901
9880.000000	81.618
10000.000000	80.292
10150.000000	78.939
10300.000000	77.809
10440.000000	77.625
10600.000000	79.949
10750.000000	83.214
10900.000000	85.800
11060.000000	88.337
11200.000000	89.847
11380.000000	90.381
11500.000000	90.156
11720.000000	88.957
11800.000000	88.310
12060.000000	86.720
12200.000000	86.030
12410.000000	85.312
12500.000000	84.964
12650.000000	84.797
12800.000000	84.198
13150.000000	83.642
13200.000000	83.535
13400.000000	82.042
13600.000000	80.811
13800.000000	79.320
14000.000000	78.055
14300.000000	78.431
14500.000000	79.441
14750.000000	80.673
15000.000000	79.893
15250.000000	76.989
15500.000000	72.879
15750.000000	69.472
16000.000000	70.456
16250.000000	72.386
16500.000000	76.101
16750.000000	76.261
17000.000000	74.840
17250.000000	76.912
17500.000000	79.780
17750.000000	80.487
18000.000000	79.221
18250.000000	76.607
18500.000000	74.539
18750.000000	73.525
19000.000000	72.200
19250.000000	69.351
19500.000000	66.733
19750.000000	62.723
