* Measurement data measured by REW V5.31.1
* Source: Frequency response averaged data
* Format: Averaged data produced from the rms magnitudes of R 861, R 863, R 864, R 865
* Dated: 1/08/2025 04:43:03 PM
* REW Settings:
*  C-weighting compensation: Off
*  Target level: 75.0 dB
* Note: Averaged data produced from the rms magnitudes of R 861, R 863, R 864, R 865
* Measurement: R AVG 100
* Smoothing: None
* Frequency Step: 1/48 octave
* Start Frequency: 20.000 Hz
*
* Freq(Hz)	SPL(dB)
20.000000	79.221
20.299999	79.260
20.600000	79.139
20.900000	78.956
21.200001	78.845
21.400000	78.866
21.799999	79.097
22.000000	79.266
22.400000	79.568
22.700001	79.697
23.000000	79.743
23.299999	79.759
23.600000	79.802
24.000000	79.950
24.299999	80.115
24.700001	80.339
25.000000	80.471
25.400000	80.595
25.799999	80.712
26.200001	80.887
26.500000	81.064
26.900000	81.331
27.200001	81.516
27.600000	81.702
28.000000	81.821
28.500000	81.977
29.000000	82.332
29.500000	82.936
30.000000	83.570
30.400000	83.900
30.700001	83.985
31.100000	83.886
31.500000	83.635
32.000000	83.377
32.500000	83.431
33.000000	83.716
33.500000	83.947
34.000000	83.972
34.500000	83.887
35.000000	83.899
35.500000	84.111
36.000000	84.407
36.500000	84.626
37.000000	84.739
37.500000	84.848
38.200001	85.149
38.700001	85.403
39.500000	85.634
40.000000	85.699
40.599998	85.816
41.200001	86.011
41.799999	86.246
42.500000	86.537
43.099998	86.751
43.700001	86.865
44.400002	86.907
45.000000	86.993
45.500000	87.136
46.200001	87.373
46.799999	87.556
47.500000	87.761
48.200001	87.972
48.700001	88.111
49.400002	88.277
50.000000	88.408
50.799999	88.599
51.500000	88.766
52.200001	88.895
53.000000	89.006
53.799999	89.110
54.500000	89.230
55.200001	89.420
56.000000	89.629
57.000000	89.765
58.000000	90.106
59.000000	90.340
60.000000	90.277
60.799999	90.519
61.500000	90.743
62.200001	90.762
63.000000	90.851
64.000000	91.220
65.000000	91.238
66.000000	91.188
67.000000	91.350
68.000000	91.341
69.000000	91.276
70.000000	91.199
71.000000	91.118
72.000000	91.210
73.000000	91.373
74.000000	91.563
75.000000	91.676
76.199997	91.616
77.500000	91.392
78.800003	91.285
80.000000	91.466
81.199997	91.608
82.500000	91.825
83.800003	91.881
85.000000	92.043
86.199997	92.039
87.500000	92.146
88.500000	92.061
90.000000	92.188
91.199997	92.153
92.500000	92.145
93.800003	92.091
95.000000	92.122
96.199997	92.093
97.500000	92.059
98.800003	92.014
100.000000	91.999
101.500000	91.939
103.000000	91.871
104.400002	91.882
106.000000	91.761
107.500000	91.726
109.000000	91.681
110.599998	91.575
112.000000	91.505
113.800003	91.441
115.000000	91.361
117.199997	91.318
118.000000	91.152
120.599998	91.419
122.000000	91.066
124.099998	90.877
125.000000	90.804
126.500000	90.780
128.000000	90.657
131.500000	90.499
132.000000	90.452
134.000000	90.366
136.000000	90.305
138.000000	90.186
140.000000	90.096
143.000000	89.940
145.000000	89.859
147.500000	89.713
150.000000	89.578
152.500000	89.382
155.000000	89.345
157.500000	89.239
160.000000	89.171
162.500000	89.056
165.000000	88.892
167.500000	88.820
170.000000	88.693
172.500000	88.669
175.000000	88.576
177.500000	88.480
180.000000	88.351
182.500000	88.275
185.000000	88.105
187.500000	88.089
190.000000	88.042
192.500000	87.965
195.000000	87.855
197.500000	87.786
200.000000	87.689
203.000000	87.674
206.000000	87.590
209.000000	87.552
212.000000	87.533
214.000000	87.465
218.000000	87.487
220.000000	87.437
224.000000	87.391
227.000000	87.430
230.000000	87.424
233.000000	87.350
236.000000	87.268
240.000000	87.184
243.000000	87.178
247.000000	87.185
250.000000	87.105
254.000000	87.172
258.000000	87.237
262.000000	87.299
265.000000	87.311
269.000000	87.332
272.000000	87.282
276.000000	87.185
280.000000	87.100
285.000000	87.039
290.000000	86.931
295.000000	86.859
300.000000	86.812
304.000000	86.746
307.000000	86.692
311.000000	86.630
315.000000	86.597
320.000000	86.546
325.000000	86.494
330.000000	86.512
335.000000	86.382
340.000000	86.387
345.000000	86.272
350.000000	86.260
355.000000	86.335
360.000000	86.205
365.000000	86.109
370.000000	86.158
375.000000	86.052
382.000000	86.076
387.000000	86.044
395.000000	86.045
400.000000	85.992
406.000000	85.893
412.000000	85.803
418.000000	85.837
425.000000	85.808
431.000000	85.825
437.000000	85.820
444.000000	85.874
450.000000	85.761
455.000000	85.774
462.000000	85.775
468.000000	85.693
475.000000	85.721
482.000000	85.754
487.000000	85.736
494.000000	85.645
500.000000	85.650
508.000000	85.585
515.000000	85.661
522.000000	85.634
530.000000	85.640
538.000000	85.598
545.000000	85.564
552.000000	85.550
560.000000	85.523
570.000000	85.547
580.000000	85.451
590.000000	85.485
600.000000	85.369
608.000000	85.342
615.000000	85.337
622.000000	85.339
630.000000	85.279
640.000000	85.336
650.000000	85.383
660.000000	85.470
670.000000	85.369
680.000000	85.529
690.000000	85.595
700.000000	85.655
710.000000	85.620
720.000000	85.831
730.000000	85.806
740.000000	85.885
750.000000	85.922
762.000000	85.931
775.000000	86.001
788.000000	86.085
800.000000	86.087
812.000000	86.130
825.000000	86.121
838.000000	86.290
850.000000	86.268
862.000000	86.346
875.000000	86.407
885.000000	86.417
900.000000	86.443
912.000000	86.473
925.000000	86.534
938.000000	86.601
950.000000	86.705
962.000000	86.947
975.000000	86.884
988.000000	86.924
1000.000000	87.097
1015.000000	87.053
1030.000000	87.157
1044.000000	87.325
1060.000000	87.463
1075.000000	87.540
1090.000000	87.662
1106.000000	87.674
1120.000000	87.785
1138.000000	87.912
1150.000000	87.992
1172.000000	88.083
1180.000000	88.119
1206.000000	88.185
1220.000000	88.370
1241.000000	88.369
1250.000000	88.411
1265.000000	88.544
1280.000000	88.653
1315.000000	88.787
1320.000000	88.851
1340.000000	88.917
1360.000000	88.866
1380.000000	88.869
1400.000000	89.111
1430.000000	89.056
1450.000000	88.849
1475.000000	89.079
1500.000000	88.897
1525.000000	88.960
1550.000000	89.141
1575.000000	89.530
1600.000000	89.522
1625.000000	89.603
1650.000000	90.128
1675.000000	90.034
1700.000000	89.996
1725.000000	90.274
1750.000000	90.574
1775.000000	90.582
1800.000000	90.812
1825.000000	91.682
1850.000000	90.971
1875.000000	91.519
1900.000000	91.276
1925.000000	91.734
1950.000000	91.627
1975.000000	92.182
2000.000000	92.138
2030.000000	92.185
2060.000000	92.693
2090.000000	92.090
2120.000000	93.363
2140.000000	93.375
2180.000000	93.461
2200.000000	94.236
2240.000000	93.813
2270.000000	93.599
2300.000000	94.323
2330.000000	94.599
2360.000000	95.245
2400.000000	95.629
2430.000000	95.917
2470.000000	96.249
2500.000000	96.401
2540.000000	96.498
2580.000000	96.809
2620.000000	97.065
2650.000000	97.177
2690.000000	97.306
2720.000000	97.462
2760.000000	97.191
2800.000000	97.355
2850.000000	97.220
2900.000000	97.023
2950.000000	96.892
3000.000000	96.753
3040.000000	96.576
3070.000000	96.477
3110.000000	96.026
3150.000000	95.549
3200.000000	94.912
3250.000000	94.371
3300.000000	93.849
3350.000000	93.431
3400.000000	93.097
3450.000000	92.881
3500.000000	92.918
3550.000000	92.805
3600.000000	92.811
3650.000000	92.917
3700.000000	93.004
3750.000000	92.986
3820.000000	92.976
3870.000000	93.018
3950.000000	92.796
4000.000000	92.807
4060.000000	92.601
4120.000000	92.304
4180.000000	92.106
4250.000000	91.810
4310.000000	91.539
4370.000000	91.387
4440.000000	91.187
4500.000000	90.993
4550.000000	90.862
4620.000000	90.669
4680.000000	90.561
4750.000000	90.312
4820.000000	90.156
4870.000000	90.173
4940.000000	90.377
5000.000000	90.620
5080.000000	91.216
5150.000000	92.018
5220.000000	92.748
5300.000000	93.762
5380.000000	94.691
5450.000000	95.406
5520.000000	96.087
5600.000000	96.361
5700.000000	95.985
5800.000000	94.945
5900.000000	93.639
6000.000000	92.296
6080.000000	91.442
6150.000000	90.814
6220.000000	90.474
6300.000000	90.151
6400.000000	90.111
6500.000000	90.342
6600.000000	90.702
6700.000000	91.022
6800.000000	91.466
6900.000000	91.804
7000.000000	92.099
7100.000000	92.265
7200.000000	92.384
7300.000000	92.432
7400.000000	92.351
7500.000000	92.280
7620.000000	92.131
7750.000000	91.995
7880.000000	91.958
8000.000000	91.953
8120.000000	91.989
8250.000000	92.166
8380.000000	92.220
8500.000000	92.095
8620.000000	91.344
8750.000000	89.633
8850.000000	87.826
9000.000000	84.886
9120.000000	82.507
9250.000000	80.115
9380.000000	78.413
9500.000000	78.178
9620.000000	78.194
9750.000000	78.374
9880.000000	78.324
10000.000000	77.764
10150.000000	76.742
10300.000000	75.877
10440.000000	75.875
10600.000000	77.600
10750.000000	79.521
10900.000000	81.745
11060.000000	83.781
11200.000000	85.049
11380.000000	84.960
11500.000000	84.723
11720.000000	84.003
11800.000000	83.893
12060.000000	84.193
12200.000000	84.787
12410.000000	85.490
12500.000000	85.570
12650.000000	85.593
12800.000000	84.857
13150.000000	84.154
13200.000000	84.181
13400.000000	82.305
13600.000000	80.141
13800.000000	79.247
14000.000000	78.044
14300.000000	77.248
14500.000000	78.046
14750.000000	79.884
15000.000000	78.781
15250.000000	76.801
15500.000000	75.023
15750.000000	73.670
16000.000000	72.945
16250.000000	72.461
16500.000000	73.835
16750.000000	76.292
17000.000000	79.827
17250.000000	79.735
17500.000000	76.714
17750.000000	73.578
18000.000000	71.480
18250.000000	71.377
18500.000000	70.307
18750.000000	68.438
19000.000000	65.902
19250.000000	68.537
19500.000000	68.623
19750.000000	68.911
