* Measurement data measured by REW V5.31.1
* Source: Frequency response averaged data
* Format: Averaged data produced from the rms magnitudes of R 815, R 816, R 817, R 818, R 819
* Dated: 14/09/2024 02:09:12 PM
* REW Settings:
*  C-weighting compensation: Off
*  Target level: 75.0 dB
* Note: Averaged data produced from the rms magnitudes of R 815, R 816, R 817, R 818, R 819
* Measurement: R o1 c1 AVG
* Smoothing: None
* Frequency Step: 1/48 octave
* Start Frequency: 20.000 Hz
*
* Freq(Hz)	SPL(dB)
20.000000	86.778
20.299999	86.958
20.600000	87.104
20.900000	87.214
21.200001	87.297
21.400000	87.347
21.799999	87.457
22.000000	87.528
22.400000	87.720
22.700001	87.901
23.000000	88.092
23.299999	88.272
23.600000	88.428
24.000000	88.596
24.299999	88.705
24.700001	88.850
25.000000	88.970
25.400000	89.139
25.799999	89.305
26.200001	89.460
26.500000	89.575
26.900000	89.738
27.200001	89.869
27.600000	90.042
28.000000	90.193
28.500000	90.355
29.000000	90.547
29.500000	90.827
30.000000	91.152
30.400000	91.373
30.700001	91.491
31.100000	91.598
31.500000	91.686
32.000000	91.830
32.500000	92.004
33.000000	92.135
33.500000	92.201
34.000000	92.274
34.500000	92.429
35.000000	92.646
35.500000	92.837
36.000000	92.955
36.500000	93.043
37.000000	93.173
37.500000	93.353
38.200001	93.563
38.700001	93.637
39.500000	93.784
40.000000	93.976
40.599998	94.227
41.200001	94.381
41.799999	94.474
42.500000	94.646
43.099998	94.823
43.700001	94.945
44.400002	95.066
45.000000	95.228
45.500000	95.370
46.200001	95.524
46.799999	95.669
47.500000	95.887
48.200001	96.031
48.700001	96.067
49.400002	96.141
50.000000	96.289
50.799999	96.495
51.500000	96.613
52.200001	96.709
53.000000	96.804
53.799999	96.897
54.500000	96.993
55.200001	97.076
56.000000	97.142
57.000000	97.232
58.000000	97.324
59.000000	97.412
60.000000	97.523
60.799999	97.625
61.500000	97.681
62.200001	97.706
63.000000	97.761
64.000000	97.854
65.000000	97.892
66.000000	97.992
67.000000	98.150
68.000000	98.265
69.000000	98.291
70.000000	98.288
71.000000	98.255
72.000000	98.142
73.000000	97.996
74.000000	97.820
75.000000	97.636
76.199997	97.491
77.500000	97.504
78.800003	97.602
80.000000	97.745
81.199997	97.868
82.500000	97.971
83.800003	98.021
85.000000	98.029
86.199997	98.066
87.500000	98.003
88.500000	97.948
90.000000	97.909
91.199997	97.929
92.500000	97.940
93.800003	97.952
95.000000	97.929
96.199997	97.895
97.500000	97.868
98.800003	97.841
100.000000	97.802
101.500000	97.767
103.000000	97.716
104.400002	97.682
106.000000	97.631
107.500000	97.595
109.000000	97.546
110.599998	97.506
112.000000	97.453
113.800003	97.409
115.000000	97.376
117.199997	97.313
118.000000	97.289
120.599998	97.240
122.000000	97.207
124.099998	97.163
125.000000	97.144
126.500000	97.112
128.000000	97.030
131.500000	96.966
132.000000	96.961
134.000000	96.892
136.000000	96.840
138.000000	96.765
140.000000	96.728
143.000000	96.669
145.000000	96.636
147.500000	96.580
150.000000	96.504
152.500000	96.480
155.000000	96.414
157.500000	96.359
160.000000	96.298
162.500000	96.266
165.000000	96.205
167.500000	96.192
170.000000	96.115
172.500000	96.087
175.000000	96.049
177.500000	96.012
180.000000	95.970
182.500000	95.924
185.000000	95.918
187.500000	95.873
190.000000	95.860
192.500000	95.835
195.000000	95.807
197.500000	95.780
200.000000	95.759
203.000000	95.732
206.000000	95.711
209.000000	95.685
212.000000	95.669
214.000000	95.669
218.000000	95.640
220.000000	95.629
224.000000	95.595
227.000000	95.602
230.000000	95.574
233.000000	95.546
236.000000	95.501
240.000000	95.444
243.000000	95.400
247.000000	95.357
250.000000	95.293
254.000000	95.239
258.000000	95.188
262.000000	95.171
265.000000	95.142
269.000000	95.088
272.000000	95.052
276.000000	94.988
280.000000	94.918
285.000000	94.835
290.000000	94.753
295.000000	94.707
300.000000	94.639
304.000000	94.595
307.000000	94.580
311.000000	94.536
315.000000	94.492
320.000000	94.456
325.000000	94.403
330.000000	94.375
335.000000	94.336
340.000000	94.288
345.000000	94.268
350.000000	94.233
355.000000	94.202
360.000000	94.159
365.000000	94.118
370.000000	94.114
375.000000	94.084
382.000000	94.057
387.000000	94.025
395.000000	93.984
400.000000	93.974
406.000000	93.947
412.000000	93.879
418.000000	93.890
425.000000	93.851
431.000000	93.846
437.000000	93.811
444.000000	93.807
450.000000	93.743
455.000000	93.730
462.000000	93.733
468.000000	93.715
475.000000	93.700
482.000000	93.726
487.000000	93.714
494.000000	93.684
500.000000	93.682
508.000000	93.661
515.000000	93.665
522.000000	93.663
530.000000	93.642
538.000000	93.679
545.000000	93.678
552.000000	93.677
560.000000	93.672
570.000000	93.707
580.000000	93.712
590.000000	93.713
600.000000	93.735
608.000000	93.765
615.000000	93.763
622.000000	93.768
630.000000	93.752
640.000000	93.789
650.000000	93.798
660.000000	93.774
670.000000	93.813
680.000000	93.819
690.000000	93.830
700.000000	93.896
710.000000	93.898
720.000000	93.902
730.000000	94.015
740.000000	94.075
750.000000	94.120
762.000000	94.134
775.000000	94.187
788.000000	94.290
800.000000	94.315
812.000000	94.341
825.000000	94.361
838.000000	94.430
850.000000	94.502
862.000000	94.603
875.000000	94.681
885.000000	94.661
900.000000	94.717
912.000000	94.775
925.000000	94.832
938.000000	94.882
950.000000	94.963
962.000000	95.143
975.000000	95.246
988.000000	95.268
1000.000000	95.311
1015.000000	95.425
1030.000000	95.530
1044.000000	95.707
1060.000000	95.927
1075.000000	95.945
1090.000000	96.184
1106.000000	96.172
1120.000000	96.262
1138.000000	96.504
1150.000000	96.555
1172.000000	96.690
1180.000000	96.652
1206.000000	96.774
1220.000000	96.990
1241.000000	97.120
1250.000000	97.105
1265.000000	97.213
1280.000000	97.406
1315.000000	97.737
1320.000000	97.728
1340.000000	97.882
1360.000000	98.143
1380.000000	98.267
1400.000000	98.504
1430.000000	98.547
1450.000000	98.696
1475.000000	99.140
1500.000000	99.165
1525.000000	99.184
1550.000000	99.542
1575.000000	99.941
1600.000000	100.295
1625.000000	100.166
1650.000000	100.388
1675.000000	100.569
1700.000000	100.554
1725.000000	100.512
1750.000000	100.473
1775.000000	100.282
1800.000000	100.274
1825.000000	100.702
1850.000000	100.442
1875.000000	100.698
1900.000000	100.927
1925.000000	101.113
1950.000000	101.444
1975.000000	101.306
2000.000000	101.346
2030.000000	102.252
2060.000000	102.493
2090.000000	101.566
2120.000000	102.131
2140.000000	103.194
2180.000000	103.183
2200.000000	103.475
2240.000000	103.685
2270.000000	103.618
2300.000000	103.727
2330.000000	104.296
2360.000000	104.592
2400.000000	104.462
2430.000000	104.789
2470.000000	104.745
2500.000000	104.696
2540.000000	104.569
2580.000000	104.244
2620.000000	104.173
2650.000000	103.946
2690.000000	103.846
2720.000000	104.014
2760.000000	103.494
2800.000000	103.819
2850.000000	104.116
2900.000000	104.391
2950.000000	104.870
3000.000000	105.293
3040.000000	105.719
3070.000000	106.153
3110.000000	106.514
3150.000000	106.736
3200.000000	107.063
3250.000000	107.045
3300.000000	107.132
3350.000000	106.924
3400.000000	106.756
3450.000000	106.630
3500.000000	106.397
3550.000000	106.072
3600.000000	105.595
3650.000000	105.200
3700.000000	104.648
3750.000000	104.132
3820.000000	103.289
3870.000000	102.700
3950.000000	101.964
4000.000000	101.522
4060.000000	100.947
4120.000000	100.487
4180.000000	100.100
4250.000000	99.725
4310.000000	99.459
4370.000000	99.421
4440.000000	99.468
4500.000000	99.229
4550.000000	99.114
4620.000000	99.066
4680.000000	99.114
4750.000000	99.179
4820.000000	99.424
4870.000000	99.507
4940.000000	99.650
5000.000000	99.886
5080.000000	100.102
5150.000000	100.465
5220.000000	100.903
5300.000000	101.559
5380.000000	102.208
5450.000000	102.982
5520.000000	103.777
5600.000000	104.525
5700.000000	105.127
5800.000000	105.034
5900.000000	104.202
6000.000000	102.986
6080.000000	101.987
6150.000000	101.281
6220.000000	100.774
6300.000000	100.475
6400.000000	100.091
6500.000000	100.074
6600.000000	100.042
6700.000000	100.015
6800.000000	100.310
6900.000000	100.333
7000.000000	100.564
7100.000000	100.907
7200.000000	101.021
7300.000000	101.163
7400.000000	101.195
7500.000000	101.289
7620.000000	101.315
7750.000000	101.272
7880.000000	101.335
8000.000000	101.299
8120.000000	101.243
8250.000000	101.103
8380.000000	100.925
8500.000000	100.566
8620.000000	99.980
8750.000000	98.969
8850.000000	97.996
9000.000000	96.770
9120.000000	95.844
9250.000000	94.607
9380.000000	92.771
9500.000000	90.665
9620.000000	88.872
9750.000000	87.151
9880.000000	85.830
10000.000000	84.697
10150.000000	83.113
10300.000000	82.583
10440.000000	83.489
10600.000000	85.480
10750.000000	87.663
10900.000000	90.291
11060.000000	92.796
11200.000000	92.757
11380.000000	90.324
11500.000000	88.860
11720.000000	86.217
11800.000000	85.939
12060.000000	88.168
12200.000000	89.656
12410.000000	91.495
12500.000000	92.181
12650.000000	93.085
12800.000000	93.137
13150.000000	90.188
13200.000000	89.466
13400.000000	86.413
13600.000000	85.158
13800.000000	85.020
14000.000000	85.178
14300.000000	85.191
14500.000000	85.120
14750.000000	84.709
15000.000000	82.997
15250.000000	81.514
15500.000000	79.563
15750.000000	75.774
16000.000000	74.597
16250.000000	77.948
16500.000000	80.035
16750.000000	82.063
17000.000000	85.221
17250.000000	86.166
17500.000000	83.138
17750.000000	78.778
18000.000000	76.133
18250.000000	75.703
18500.000000	76.594
18750.000000	78.370
19000.000000	80.373
19250.000000	82.472
19500.000000	84.746
19750.000000	85.104
