* Measurement data measured by REW V5.31.1
* Source: Frequency response averaged data
* Format: Averaged data produced from the rms magnitudes of L 797, L 798, R 800, R 801, L 802, R 803
* Dated: 14/09/2024 03:04:58 PM
* REW Settings:
*  C-weighting compensation: Off
*  Target level: 75.0 dB
* Note: Averaged data produced from the rms magnitudes of L 797, L 798, R 800, R 801, L 802, R 803
* Measurement: R NEW AVG
* Smoothing: None
* Frequency Step: 1/48 octave
* Start Frequency: 20.000 Hz
*
* Freq(Hz)	SPL(dB)
20.000000	84.769
20.299999	84.834
20.600000	84.830
20.900000	84.782
21.200001	84.741
21.400000	84.750
21.799999	84.875
22.000000	84.988
22.400000	85.260
22.700001	85.447
23.000000	85.580
23.299999	85.656
23.600000	85.691
24.000000	85.720
24.299999	85.760
24.700001	85.851
25.000000	85.935
25.400000	86.041
25.799999	86.127
26.200001	86.200
26.500000	86.258
26.900000	86.348
27.200001	86.418
27.600000	86.505
28.000000	86.576
28.500000	86.649
29.000000	86.726
29.500000	86.802
30.000000	86.861
30.400000	86.896
30.700001	86.926
31.100000	86.979
31.500000	87.045
32.000000	87.119
32.500000	87.161
33.000000	87.198
33.500000	87.277
34.000000	87.393
34.500000	87.486
35.000000	87.527
35.500000	87.557
36.000000	87.638
36.500000	87.771
37.000000	87.896
37.500000	87.962
38.200001	87.962
38.700001	87.940
39.500000	87.969
40.000000	88.050
40.599998	88.167
41.200001	88.235
41.799999	88.268
42.500000	88.365
43.099998	88.460
43.700001	88.454
44.400002	88.390
45.000000	88.430
45.500000	88.503
46.200001	88.562
46.799999	88.611
47.500000	88.688
48.200001	88.684
48.700001	88.702
49.400002	88.930
50.000000	89.117
50.799999	89.002
51.500000	89.002
52.200001	89.389
53.000000	89.516
53.799999	89.161
54.500000	89.142
55.200001	89.308
56.000000	89.272
57.000000	89.316
58.000000	89.164
59.000000	89.024
60.000000	89.464
60.799999	89.361
61.500000	89.120
62.200001	89.184
63.000000	89.393
64.000000	89.442
65.000000	89.467
66.000000	89.523
67.000000	89.721
68.000000	89.756
69.000000	89.770
70.000000	89.865
71.000000	89.801
72.000000	89.800
73.000000	89.697
74.000000	89.537
75.000000	89.365
76.199997	89.104
77.500000	89.136
78.800003	89.211
80.000000	89.344
81.199997	89.537
82.500000	89.581
83.800003	89.866
85.000000	89.841
86.199997	89.779
87.500000	89.939
88.500000	89.896
90.000000	89.904
91.199997	90.023
92.500000	90.095
93.800003	90.205
95.000000	90.252
96.199997	90.316
97.500000	90.374
98.800003	90.423
100.000000	90.456
101.500000	90.511
103.000000	90.556
104.400002	90.627
106.000000	90.587
107.500000	90.674
109.000000	90.689
110.599998	90.753
112.000000	90.781
113.800003	90.803
115.000000	90.830
117.199997	90.923
118.000000	90.699
120.599998	90.920
122.000000	90.925
124.099998	91.005
125.000000	90.915
126.500000	91.240
128.000000	91.035
131.500000	91.130
132.000000	91.126
134.000000	91.129
136.000000	91.129
138.000000	91.147
140.000000	91.177
143.000000	91.228
145.000000	91.238
147.500000	91.229
150.000000	91.253
152.500000	91.280
155.000000	91.269
157.500000	91.289
160.000000	91.296
162.500000	91.252
165.000000	91.270
167.500000	91.296
170.000000	91.349
172.500000	91.360
175.000000	91.344
177.500000	91.350
180.000000	91.343
182.500000	91.345
185.000000	91.351
187.500000	91.332
190.000000	91.367
192.500000	91.361
195.000000	91.345
197.500000	91.338
200.000000	91.295
203.000000	91.301
206.000000	91.270
209.000000	91.245
212.000000	91.190
214.000000	91.185
218.000000	91.136
220.000000	91.109
224.000000	91.060
227.000000	91.067
230.000000	91.072
233.000000	91.051
236.000000	91.016
240.000000	91.018
243.000000	91.018
247.000000	91.019
250.000000	90.977
254.000000	90.963
258.000000	90.940
262.000000	90.960
265.000000	90.955
269.000000	90.940
272.000000	90.920
276.000000	90.924
280.000000	90.904
285.000000	90.891
290.000000	90.879
295.000000	90.877
300.000000	90.844
304.000000	90.833
307.000000	90.846
311.000000	90.816
315.000000	90.817
320.000000	90.822
325.000000	90.793
330.000000	90.783
335.000000	90.791
340.000000	90.760
345.000000	90.730
350.000000	90.713
355.000000	90.686
360.000000	90.691
365.000000	90.689
370.000000	90.714
375.000000	90.724
382.000000	90.696
387.000000	90.674
395.000000	90.670
400.000000	90.645
406.000000	90.651
412.000000	90.600
418.000000	90.629
425.000000	90.610
431.000000	90.637
437.000000	90.650
444.000000	90.662
450.000000	90.680
455.000000	90.689
462.000000	90.684
468.000000	90.729
475.000000	90.741
482.000000	90.768
487.000000	90.799
494.000000	90.816
500.000000	90.826
508.000000	90.831
515.000000	90.874
522.000000	90.900
530.000000	90.902
538.000000	90.951
545.000000	90.974
552.000000	91.053
560.000000	91.055
570.000000	91.091
580.000000	91.162
590.000000	91.163
600.000000	91.255
608.000000	91.267
615.000000	91.297
622.000000	91.307
630.000000	91.343
640.000000	91.432
650.000000	91.464
660.000000	91.545
670.000000	91.580
680.000000	91.640
690.000000	91.711
700.000000	91.807
710.000000	91.893
720.000000	91.993
730.000000	92.067
740.000000	92.212
750.000000	92.319
762.000000	92.421
775.000000	92.596
788.000000	92.763
800.000000	92.903
812.000000	92.946
825.000000	93.102
838.000000	93.273
850.000000	93.376
862.000000	93.552
875.000000	93.705
885.000000	93.757
900.000000	93.978
912.000000	94.039
925.000000	94.186
938.000000	94.328
950.000000	94.485
962.000000	94.659
975.000000	94.791
988.000000	94.952
1000.000000	95.092
1015.000000	95.309
1030.000000	95.552
1044.000000	95.789
1060.000000	96.041
1075.000000	96.317
1090.000000	96.559
1106.000000	96.755
1120.000000	96.939
1138.000000	97.303
1150.000000	97.441
1172.000000	97.728
1180.000000	97.762
1206.000000	98.019
1220.000000	98.289
1241.000000	98.565
1250.000000	98.683
1265.000000	98.854
1280.000000	99.125
1315.000000	99.552
1320.000000	99.605
1340.000000	99.928
1360.000000	100.205
1380.000000	100.477
1400.000000	100.709
1430.000000	100.998
1450.000000	101.244
1475.000000	101.642
1500.000000	101.704
1525.000000	102.024
1550.000000	102.371
1575.000000	102.735
1600.000000	102.988
1625.000000	103.050
1650.000000	103.226
1675.000000	103.505
1700.000000	103.535
1725.000000	103.550
1750.000000	103.575
1775.000000	103.630
1800.000000	103.732
1825.000000	104.040
1850.000000	103.849
1875.000000	103.986
1900.000000	104.070
1925.000000	104.241
1950.000000	104.549
1975.000000	104.324
2000.000000	104.449
2030.000000	105.121
2060.000000	105.208
2090.000000	104.428
2120.000000	104.722
2140.000000	105.621
2180.000000	105.282
2200.000000	105.453
2240.000000	105.352
2270.000000	105.269
2300.000000	105.377
2330.000000	105.726
2360.000000	105.811
2400.000000	105.850
2430.000000	106.104
2470.000000	106.202
2500.000000	106.123
2540.000000	106.130
2580.000000	106.035
2620.000000	106.191
2650.000000	106.194
2690.000000	106.069
2720.000000	106.467
2760.000000	106.070
2800.000000	106.456
2850.000000	106.618
2900.000000	106.734
2950.000000	106.937
3000.000000	106.990
3040.000000	107.073
3070.000000	107.192
3110.000000	107.169
3150.000000	106.957
3200.000000	106.822
3250.000000	106.540
3300.000000	106.400
3350.000000	106.027
3400.000000	105.779
3450.000000	105.558
3500.000000	105.174
3550.000000	104.890
3600.000000	104.426
3650.000000	104.120
3700.000000	103.606
3750.000000	103.206
3820.000000	102.512
3870.000000	102.048
3950.000000	101.297
4000.000000	100.969
4060.000000	100.406
4120.000000	99.876
4180.000000	99.466
4250.000000	99.125
4310.000000	98.861
4370.000000	98.748
4440.000000	98.664
4500.000000	98.508
4550.000000	98.522
4620.000000	98.566
4680.000000	98.643
4750.000000	98.783
4820.000000	98.993
4870.000000	99.140
4940.000000	99.386
5000.000000	99.694
5080.000000	100.138
5150.000000	100.666
5220.000000	101.114
5300.000000	101.765
5380.000000	102.465
5450.000000	103.141
5520.000000	103.741
5600.000000	104.062
5700.000000	103.833
5800.000000	102.978
5900.000000	101.701
6000.000000	100.562
6080.000000	99.792
6150.000000	99.483
6220.000000	99.368
6300.000000	99.117
6400.000000	99.188
6500.000000	99.404
6600.000000	99.627
6700.000000	100.101
6800.000000	100.563
6900.000000	101.092
7000.000000	101.758
7100.000000	102.133
7200.000000	102.503
7300.000000	102.696
7400.000000	102.752
7500.000000	102.683
7620.000000	102.512
7750.000000	102.367
7880.000000	102.326
8000.000000	102.269
8120.000000	102.276
8250.000000	102.249
8380.000000	102.069
8500.000000	101.735
8620.000000	101.187
8750.000000	100.230
8850.000000	99.103
9000.000000	96.610
9120.000000	94.107
9250.000000	91.127
9380.000000	88.137
9500.000000	86.469
9620.000000	86.162
9750.000000	86.578
9880.000000	87.225
10000.000000	87.449
10150.000000	87.435
10300.000000	87.083
10440.000000	86.595
10600.000000	86.177
10750.000000	85.959
10900.000000	86.367
11060.000000	87.734
11200.000000	89.470
11380.000000	90.711
11500.000000	90.823
11720.000000	90.662
11800.000000	90.594
12060.000000	90.848
12200.000000	91.345
12410.000000	92.760
12500.000000	93.535
12650.000000	94.774
12800.000000	95.166
13150.000000	90.868
13200.000000	89.756
13400.000000	85.696
13600.000000	84.332
13800.000000	83.640
14000.000000	82.135
14300.000000	80.506
14500.000000	83.485
14750.000000	85.286
15000.000000	84.431
15250.000000	82.939
15500.000000	81.800
15750.000000	80.323
16000.000000	80.608
16250.000000	81.229
16500.000000	81.316
16750.000000	83.084
17000.000000	86.376
17250.000000	88.697
17500.000000	86.644
17750.000000	81.725
18000.000000	77.203
18250.000000	74.325
18500.000000	74.257
18750.000000	77.512
19000.000000	81.349
19250.000000	83.919
19500.000000	85.304
19750.000000	85.879
