* Measurement data measured by REW V5.31.1
* Source: Frequency response averaged data
* Format: Averaged data produced from the rms magnitudes of R 251, R 253, R 254, R 255
* Dated: 3/08/2024 03:46:16 AM
* REW Settings:
*  C-weighting compensation: Off
*  Target level: 75.0 dB
* Note: Averaged data produced from the rms magnitudes of R 251, R 253, R 254, R 255
* Measurement: R AVG
* Smoothing: None
* Frequency Step: 1/48 octave
* Start Frequency: 20.000 Hz
*
* Freq(Hz)	SPL(dB)
20.000000	65.660
20.299999	65.860
20.600000	66.124
20.900000	66.442
21.200001	66.775
21.400000	66.980
21.799999	67.316
22.000000	67.442
22.400000	67.632
22.700001	67.761
23.000000	67.913
23.299999	68.108
23.600000	68.343
24.000000	68.678
24.299999	68.909
24.700001	69.157
25.000000	69.307
25.400000	69.508
25.799999	69.773
26.200001	70.108
26.500000	70.361
26.900000	70.636
27.200001	70.783
27.600000	70.971
28.000000	71.280
28.500000	71.930
29.000000	72.634
29.500000	73.056
30.000000	73.094
30.400000	72.976
30.700001	72.918
31.100000	72.977
31.500000	73.172
32.000000	73.441
32.500000	73.629
33.000000	73.798
33.500000	74.043
34.000000	74.338
34.500000	74.601
35.000000	74.806
35.500000	74.998
36.000000	75.230
36.500000	75.502
37.000000	75.773
37.500000	76.007
38.200001	76.290
38.700001	76.518
39.500000	76.941
40.000000	77.165
40.599998	77.369
41.200001	77.591
41.799999	77.877
42.500000	78.194
43.099998	78.406
43.700001	78.620
44.400002	78.893
45.000000	79.107
45.500000	79.281
46.200001	79.532
46.799999	79.711
47.500000	79.874
48.200001	80.090
48.700001	80.285
49.400002	80.531
50.000000	80.704
50.799999	80.948
51.500000	81.165
52.200001	81.357
53.000000	81.568
53.799999	81.786
54.500000	81.990
55.200001	82.199
56.000000	82.412
57.000000	82.696
58.000000	83.031
59.000000	83.295
60.000000	83.556
60.799999	83.814
61.500000	83.993
62.200001	84.151
63.000000	84.414
64.000000	84.669
65.000000	84.773
66.000000	85.042
67.000000	85.234
68.000000	85.395
69.000000	85.603
70.000000	85.816
71.000000	86.126
72.000000	86.372
73.000000	86.569
74.000000	86.786
75.000000	86.989
76.199997	87.175
77.500000	87.391
78.800003	87.643
80.000000	87.817
81.199997	88.077
82.500000	88.292
83.800003	88.545
85.000000	88.711
86.199997	88.896
87.500000	89.081
88.500000	89.267
90.000000	89.507
91.199997	89.670
92.500000	89.857
93.800003	90.032
95.000000	90.156
96.199997	90.302
97.500000	90.468
98.800003	90.602
100.000000	90.738
101.500000	90.909
103.000000	91.062
104.400002	91.186
106.000000	91.350
107.500000	91.469
109.000000	91.621
110.599998	91.742
112.000000	91.853
113.800003	91.984
115.000000	92.080
117.199997	92.240
118.000000	92.302
120.599998	92.477
122.000000	92.533
124.099998	92.658
125.000000	92.710
126.500000	92.767
128.000000	92.866
131.500000	93.026
132.000000	93.034
134.000000	93.122
136.000000	93.166
138.000000	93.241
140.000000	93.287
143.000000	93.359
145.000000	93.430
147.500000	93.488
150.000000	93.549
152.500000	93.599
155.000000	93.661
157.500000	93.702
160.000000	93.739
162.500000	93.771
165.000000	93.807
167.500000	93.819
170.000000	93.855
172.500000	93.856
175.000000	93.880
177.500000	93.916
180.000000	93.911
182.500000	93.914
185.000000	93.906
187.500000	93.925
190.000000	93.932
192.500000	93.942
195.000000	93.943
197.500000	93.943
200.000000	93.958
203.000000	93.985
206.000000	94.012
209.000000	94.045
212.000000	94.045
214.000000	94.070
218.000000	94.080
220.000000	94.089
224.000000	94.076
227.000000	94.055
230.000000	94.085
233.000000	94.137
236.000000	94.152
240.000000	94.178
243.000000	94.198
247.000000	94.226
250.000000	94.226
254.000000	94.265
258.000000	94.274
262.000000	94.290
265.000000	94.270
269.000000	94.241
272.000000	94.233
276.000000	94.194
280.000000	94.198
285.000000	94.215
290.000000	94.202
295.000000	94.182
300.000000	94.166
304.000000	94.098
307.000000	94.074
311.000000	94.009
315.000000	93.900
320.000000	93.739
325.000000	93.534
330.000000	93.432
335.000000	93.586
340.000000	94.181
345.000000	94.923
350.000000	95.398
355.000000	95.666
360.000000	95.778
365.000000	95.826
370.000000	95.833
375.000000	95.871
382.000000	95.893
387.000000	95.891
395.000000	95.884
400.000000	95.890
406.000000	95.897
412.000000	95.843
418.000000	95.849
425.000000	95.817
431.000000	95.853
437.000000	95.847
444.000000	95.832
450.000000	95.844
455.000000	95.818
462.000000	95.894
468.000000	95.885
475.000000	95.897
482.000000	95.968
487.000000	96.054
494.000000	96.171
500.000000	96.221
508.000000	96.200
515.000000	96.240
522.000000	96.246
530.000000	96.215
538.000000	96.272
545.000000	96.295
552.000000	96.261
560.000000	96.263
570.000000	96.351
580.000000	96.420
590.000000	96.454
600.000000	96.467
608.000000	96.520
615.000000	96.527
622.000000	96.583
630.000000	96.638
640.000000	96.644
650.000000	96.709
660.000000	96.690
670.000000	96.748
680.000000	96.693
690.000000	96.778
700.000000	96.859
710.000000	96.631
720.000000	96.795
730.000000	96.911
740.000000	96.827
750.000000	96.817
762.000000	96.785
775.000000	96.775
788.000000	96.797
800.000000	96.666
812.000000	96.616
825.000000	96.642
838.000000	96.693
850.000000	96.526
862.000000	96.499
875.000000	96.363
885.000000	96.124
900.000000	96.004
912.000000	96.028
925.000000	95.971
938.000000	95.854
950.000000	95.789
962.000000	95.564
975.000000	95.427
988.000000	95.469
1000.000000	95.600
1015.000000	95.478
1030.000000	95.626
1044.000000	95.642
1060.000000	95.604
1075.000000	95.526
1090.000000	95.428
1106.000000	95.576
1120.000000	95.377
1138.000000	95.600
1150.000000	95.658
1172.000000	95.480
1180.000000	95.582
1206.000000	95.692
1220.000000	95.740
1241.000000	95.720
1250.000000	95.738
1265.000000	95.866
1280.000000	95.725
1315.000000	95.969
1320.000000	95.930
1340.000000	95.974
1360.000000	95.968
1380.000000	95.778
1400.000000	95.881
1430.000000	95.759
1450.000000	95.530
1475.000000	95.579
1500.000000	95.480
1525.000000	95.103
1550.000000	94.872
1575.000000	94.898
1600.000000	94.697
1625.000000	94.247
1650.000000	94.599
1675.000000	94.437
1700.000000	94.054
1725.000000	93.964
1750.000000	94.182
1775.000000	94.198
1800.000000	94.308
1825.000000	94.794
1850.000000	94.608
1875.000000	94.650
1900.000000	95.058
1925.000000	95.019
1950.000000	95.152
1975.000000	95.523
2000.000000	95.671
2030.000000	95.783
2060.000000	96.019
2090.000000	96.263
2120.000000	97.051
2140.000000	97.222
2180.000000	97.662
2200.000000	97.945
2240.000000	98.170
2270.000000	98.782
2300.000000	98.789
2330.000000	99.399
2360.000000	99.194
2400.000000	100.283
2430.000000	100.819
2470.000000	101.076
2500.000000	101.296
2540.000000	101.806
2580.000000	102.612
2620.000000	102.780
2650.000000	103.365
2690.000000	104.235
2720.000000	104.761
2760.000000	105.360
2800.000000	106.219
2850.000000	106.805
2900.000000	108.031
2950.000000	108.354
3000.000000	109.032
3040.000000	109.386
3070.000000	109.445
3110.000000	109.868
3150.000000	110.240
3200.000000	110.544
3250.000000	109.988
3300.000000	109.604
3350.000000	109.051
3400.000000	108.199
3450.000000	107.380
3500.000000	106.631
3550.000000	105.783
3600.000000	104.834
3650.000000	104.510
3700.000000	103.905
3750.000000	103.559
3820.000000	103.027
3870.000000	103.173
3950.000000	103.279
4000.000000	103.181
4060.000000	103.141
4120.000000	102.702
4180.000000	102.096
4250.000000	101.538
4310.000000	100.793
4370.000000	100.142
4440.000000	99.533
4500.000000	99.046
4550.000000	99.265
4620.000000	99.481
4680.000000	99.922
4750.000000	100.221
4820.000000	100.522
4870.000000	101.040
4940.000000	101.487
5000.000000	102.092
5080.000000	103.045
5150.000000	103.575
5220.000000	104.717
5300.000000	106.049
5380.000000	107.618
5450.000000	108.605
5520.000000	108.513
5600.000000	107.036
5700.000000	104.144
5800.000000	101.273
5900.000000	98.960
6000.000000	97.160
6080.000000	95.820
6150.000000	94.928
6220.000000	93.655
6300.000000	91.726
6400.000000	87.349
6500.000000	84.103
6600.000000	86.727
6700.000000	90.163
6800.000000	92.900
6900.000000	94.985
7000.000000	97.042
7100.000000	99.092
7200.000000	100.805
7300.000000	102.155
7400.000000	102.977
7500.000000	103.340
7620.000000	103.543
7750.000000	103.875
7880.000000	104.453
8000.000000	104.855
8120.000000	104.662
8250.000000	103.782
8380.000000	102.156
8500.000000	100.227
8620.000000	98.418
8750.000000	96.403
8850.000000	94.751
9000.000000	92.123
9120.000000	91.915
9250.000000	94.486
9380.000000	95.084
9500.000000	94.377
9620.000000	93.234
9750.000000	91.442
9880.000000	89.786
10000.000000	88.703
10150.000000	87.993
10300.000000	88.886
10440.000000	90.645
10600.000000	92.623
10750.000000	94.256
10900.000000	95.425
11060.000000	96.050
11200.000000	95.595
11380.000000	94.556
11500.000000	94.459
11720.000000	95.090
11800.000000	95.105
12060.000000	94.263
12200.000000	93.999
12410.000000	93.776
12500.000000	93.748
12650.000000	93.826
12800.000000	94.394
13150.000000	94.111
13200.000000	92.980
13400.000000	87.975
13600.000000	87.265
13800.000000	88.342
14000.000000	88.970
14300.000000	89.920
14500.000000	91.052
14750.000000	92.053
15000.000000	91.461
15250.000000	90.737
15500.000000	89.082
15750.000000	87.179
16000.000000	85.700
16250.000000	85.003
16500.000000	83.860
16750.000000	82.694
17000.000000	82.326
17250.000000	83.692
17500.000000	85.214
17750.000000	83.839
18000.000000	79.601
18250.000000	77.358
18500.000000	81.727
18750.000000	85.179
19000.000000	87.381
19250.000000	89.292
19500.000000	91.623
19750.000000	92.729
20000.000000	92.314
