* Measurement data measured by REW V5.31.1
* Source: Frequency response averaged data
* Format: Averaged data produced from the rms magnitudes of L 541, L 542, L 543, L 544, L 545
* Dated: 22-ago-2024 0:45:17
* REW Settings:
*  C-weighting compensation: Off
*  Target level: 75.0 dB
* Note: Averaged data produced from the rms magnitudes of L 541, L 542, L 543, L 544, L 545
* Measurement: L AVG
* Smoothing: None
* Frequency Step: 1/48 octave
* Start Frequency: 20.000 Hz
*
* Freq(Hz)	SPL(dB)
20.000000	79.824
20.299999	79.882
20.600000	79.935
20.900000	79.992
21.200001	80.063
21.400000	80.120
21.799999	80.246
22.000000	80.310
22.400000	80.424
22.700001	80.493
23.000000	80.549
23.299999	80.600
23.600000	80.652
24.000000	80.730
24.299999	80.790
24.700001	80.862
25.000000	80.903
25.400000	80.946
25.799999	80.987
26.200001	81.042
26.500000	81.094
26.900000	81.173
27.200001	81.232
27.600000	81.303
28.000000	81.365
28.500000	81.434
29.000000	81.494
29.500000	81.537
30.000000	81.567
30.400000	81.592
30.700001	81.620
31.100000	81.673
31.500000	81.740
32.000000	81.827
32.500000	81.899
33.000000	81.959
33.500000	82.019
34.000000	82.087
34.500000	82.155
35.000000	82.209
35.500000	82.248
36.000000	82.278
36.500000	82.305
37.000000	82.336
37.500000	82.375
38.200001	82.450
38.700001	82.507
39.500000	82.572
40.000000	82.598
40.599998	82.639
41.200001	82.698
41.799999	82.753
42.500000	82.788
43.099998	82.805
43.700001	82.842
44.400002	82.915
45.000000	82.965
45.500000	82.980
46.200001	82.995
46.799999	83.051
47.500000	83.155
48.200001	83.223
48.700001	83.246
49.400002	83.296
50.000000	83.365
50.799999	83.425
51.500000	83.432
52.200001	83.439
53.000000	83.453
53.799999	83.464
54.500000	83.483
55.200001	83.509
56.000000	83.553
57.000000	83.604
58.000000	83.622
59.000000	83.731
60.000000	83.822
60.799999	83.802
61.500000	83.781
62.200001	83.739
63.000000	83.617
64.000000	83.514
65.000000	83.607
66.000000	83.758
67.000000	83.886
68.000000	83.883
69.000000	83.796
70.000000	83.705
71.000000	83.604
72.000000	83.640
73.000000	83.776
74.000000	83.926
75.000000	84.044
76.199997	84.130
77.500000	84.021
78.800003	83.650
80.000000	83.436
81.199997	83.571
82.500000	83.731
83.800003	83.930
85.000000	84.057
86.199997	84.168
87.500000	84.295
88.500000	84.396
90.000000	84.500
91.199997	84.517
92.500000	84.621
93.800003	84.705
95.000000	84.734
96.199997	84.818
97.500000	84.852
98.800003	84.889
100.000000	84.965
101.500000	85.008
103.000000	85.046
104.400002	85.121
106.000000	85.170
107.500000	85.189
109.000000	85.276
110.599998	85.318
112.000000	85.363
113.800003	85.435
115.000000	85.454
117.199997	85.555
118.000000	85.588
120.599998	85.679
122.000000	85.701
124.099998	85.769
125.000000	85.772
126.500000	85.843
128.000000	85.863
131.500000	85.921
132.000000	85.926
134.000000	85.979
136.000000	86.011
138.000000	86.067
140.000000	86.092
143.000000	86.197
145.000000	86.200
147.500000	86.281
150.000000	86.287
152.500000	86.327
155.000000	86.334
157.500000	86.382
160.000000	86.484
162.500000	86.490
165.000000	86.602
167.500000	86.625
170.000000	86.631
172.500000	86.798
175.000000	86.883
177.500000	86.923
180.000000	86.960
182.500000	87.043
185.000000	87.059
187.500000	87.090
190.000000	87.134
192.500000	87.161
195.000000	87.200
197.500000	87.221
200.000000	87.248
203.000000	87.256
206.000000	87.296
209.000000	87.363
212.000000	87.403
214.000000	87.418
218.000000	87.427
220.000000	87.512
224.000000	87.514
227.000000	87.565
230.000000	87.582
233.000000	87.647
236.000000	87.704
240.000000	87.740
243.000000	87.787
247.000000	87.846
250.000000	87.849
254.000000	87.872
258.000000	87.930
262.000000	87.960
265.000000	87.975
269.000000	88.039
272.000000	88.071
276.000000	88.099
280.000000	88.156
285.000000	88.223
290.000000	88.260
295.000000	88.367
300.000000	88.432
304.000000	88.497
307.000000	88.534
311.000000	88.584
315.000000	88.663
320.000000	88.714
325.000000	88.782
330.000000	88.867
335.000000	88.862
340.000000	88.929
345.000000	89.020
350.000000	89.082
355.000000	89.130
360.000000	89.191
365.000000	89.252
370.000000	89.334
375.000000	89.401
382.000000	89.486
387.000000	89.536
395.000000	89.625
400.000000	89.689
406.000000	89.739
412.000000	89.807
418.000000	89.883
425.000000	89.950
431.000000	90.028
437.000000	90.054
444.000000	90.151
450.000000	90.182
455.000000	90.229
462.000000	90.300
468.000000	90.349
475.000000	90.435
482.000000	90.482
487.000000	90.517
494.000000	90.593
500.000000	90.635
508.000000	90.732
515.000000	90.790
522.000000	90.863
530.000000	90.971
538.000000	91.058
545.000000	91.152
552.000000	91.191
560.000000	91.287
570.000000	91.392
580.000000	91.473
590.000000	91.572
600.000000	91.688
608.000000	91.753
615.000000	91.788
622.000000	91.843
630.000000	91.914
640.000000	92.036
650.000000	92.123
660.000000	92.211
670.000000	92.296
680.000000	92.346
690.000000	92.438
700.000000	92.532
710.000000	92.624
720.000000	92.726
730.000000	92.870
740.000000	92.984
750.000000	93.109
762.000000	93.215
775.000000	93.330
788.000000	93.479
800.000000	93.529
812.000000	93.628
825.000000	93.724
838.000000	93.907
850.000000	94.046
862.000000	94.100
875.000000	94.176
885.000000	94.187
900.000000	94.329
912.000000	94.458
925.000000	94.636
938.000000	94.732
950.000000	94.875
962.000000	95.013
975.000000	94.950
988.000000	94.901
1000.000000	95.215
1015.000000	95.513
1030.000000	95.784
1044.000000	96.008
1060.000000	96.199
1075.000000	96.367
1090.000000	96.550
1106.000000	96.690
1120.000000	96.900
1138.000000	97.098
1150.000000	97.202
1172.000000	97.470
1180.000000	97.493
1206.000000	97.694
1220.000000	97.919
1241.000000	97.960
1250.000000	97.983
1265.000000	98.253
1280.000000	98.440
1315.000000	99.022
1320.000000	99.047
1340.000000	99.233
1360.000000	99.144
1380.000000	99.285
1400.000000	99.252
1430.000000	99.672
1450.000000	99.800
1475.000000	99.956
1500.000000	100.418
1525.000000	100.686
1550.000000	100.880
1575.000000	100.891
1600.000000	100.908
1625.000000	100.944
1650.000000	101.454
1675.000000	101.203
1700.000000	101.072
1725.000000	101.248
1750.000000	101.556
1775.000000	101.496
1800.000000	101.732
1825.000000	101.706
1850.000000	101.855
1875.000000	101.867
1900.000000	101.967
1925.000000	101.736
1950.000000	102.010
1975.000000	102.357
2000.000000	102.175
2030.000000	101.672
2060.000000	102.005
2090.000000	103.219
2120.000000	103.160
2140.000000	102.358
2180.000000	102.830
2200.000000	102.706
2240.000000	102.898
2270.000000	103.093
2300.000000	102.835
2330.000000	102.971
2360.000000	102.899
2400.000000	102.399
2430.000000	101.422
2470.000000	99.591
2500.000000	100.241
2540.000000	100.896
2580.000000	101.283
2620.000000	101.393
2650.000000	101.678
2690.000000	101.911
2720.000000	101.629
2760.000000	102.196
2800.000000	102.105
2850.000000	102.272
2900.000000	102.272
2950.000000	102.235
3000.000000	102.364
3040.000000	102.316
3070.000000	102.259
3110.000000	101.745
3150.000000	101.371
3200.000000	100.832
3250.000000	100.052
3300.000000	99.368
3350.000000	98.806
3400.000000	97.814
3450.000000	97.199
3500.000000	96.190
3550.000000	95.149
3600.000000	93.883
3650.000000	92.404
3700.000000	90.488
3750.000000	87.738
3820.000000	84.464
3870.000000	81.562
3950.000000	78.603
4000.000000	85.810
4060.000000	89.698
4120.000000	90.721
4180.000000	92.105
4250.000000	94.261
4310.000000	94.689
4370.000000	95.710
4440.000000	96.841
4500.000000	97.449
4550.000000	97.718
4620.000000	97.947
4680.000000	98.165
4750.000000	98.264
4820.000000	98.329
4870.000000	98.260
4940.000000	98.203
5000.000000	98.161
5080.000000	97.943
5150.000000	98.055
5220.000000	98.407
5300.000000	98.733
5380.000000	98.709
5450.000000	98.403
5520.000000	98.251
5600.000000	98.373
5700.000000	98.313
5800.000000	97.922
5900.000000	96.998
6000.000000	96.052
6080.000000	95.485
6150.000000	95.168
6220.000000	94.968
6300.000000	94.784
6400.000000	94.819
6500.000000	94.749
6600.000000	94.624
6700.000000	93.768
6800.000000	92.771
6900.000000	93.082
7000.000000	93.767
7100.000000	94.125
7200.000000	94.538
7300.000000	95.020
7400.000000	95.393
7500.000000	95.617
7620.000000	95.848
7750.000000	96.100
7880.000000	96.344
8000.000000	96.720
8120.000000	97.146
8250.000000	97.899
8380.000000	98.385
8500.000000	97.806
8620.000000	96.393
8750.000000	94.443
8850.000000	92.813
9000.000000	90.129
9120.000000	87.182
9250.000000	84.560
9380.000000	81.285
9500.000000	78.083
9620.000000	74.991
9750.000000	75.714
9880.000000	78.691
10000.000000	80.618
10150.000000	81.742
10300.000000	81.638
10440.000000	81.581
10600.000000	81.688
10750.000000	81.942
10900.000000	81.812
11060.000000	81.939
11200.000000	82.940
11380.000000	85.082
11500.000000	86.038
11720.000000	87.072
11800.000000	87.235
12060.000000	88.048
12200.000000	88.843
12410.000000	89.871
12500.000000	90.313
12650.000000	90.864
12800.000000	91.149
13150.000000	89.526
13200.000000	89.105
13400.000000	87.413
13600.000000	85.681
13800.000000	84.639
14000.000000	83.951
14300.000000	83.105
14500.000000	83.040
14750.000000	83.086
15000.000000	80.681
15250.000000	76.917
15500.000000	74.595
15750.000000	75.371
16000.000000	77.402
16250.000000	78.308
16500.000000	79.838
16750.000000	81.366
17000.000000	82.888
17250.000000	84.104
17500.000000	84.123
17750.000000	83.263
18000.000000	82.177
18250.000000	80.533
18500.000000	78.641
18750.000000	77.484
19000.000000	76.465
19250.000000	76.622
19500.000000	77.416
19750.000000	76.861
20000.000000	76.145
