* Measurement data measured by REW V5.31.1
* Source: Frequency response averaged data
* Format: Averaged data produced from the rms magnitudes of R 507, R 508, R 509, R 510, R 511, R 512
* Dated: 21/08/2024 03:09:08 AM
* REW Settings:
*  C-weighting compensation: Off
*  Target level: 75.0 dB
* Note: Averaged data produced from the rms magnitudes of R 507, R 508, R 509, R 510, R 511, R 512
* Measurement: R AVG
* Smoothing: None
* Frequency Step: 1/48 octave
* Start Frequency: 20.000 Hz
*
* Freq(Hz)	SPL(dB)
20.000000	79.619
20.299999	79.847
20.600000	80.042
20.900000	80.209
21.200001	80.358
21.400000	80.456
21.799999	80.668
22.000000	80.784
22.400000	81.033
22.700001	81.226
23.000000	81.416
23.299999	81.599
23.600000	81.776
24.000000	82.004
24.299999	82.171
24.700001	82.384
25.000000	82.534
25.400000	82.720
25.799999	82.898
26.200001	83.080
26.500000	83.223
26.900000	83.422
27.200001	83.571
27.600000	83.761
28.000000	83.937
28.500000	84.142
29.000000	84.343
29.500000	84.542
30.000000	84.737
30.400000	84.887
30.700001	84.997
31.100000	85.141
31.500000	85.282
32.000000	85.452
32.500000	85.611
33.000000	85.767
33.500000	85.934
34.000000	86.114
34.500000	86.292
35.000000	86.443
35.500000	86.561
36.000000	86.669
36.500000	86.796
37.000000	86.949
37.500000	87.110
38.200001	87.317
38.700001	87.454
39.500000	87.675
40.000000	87.802
40.599998	87.932
41.200001	88.055
41.799999	88.198
42.500000	88.376
43.099998	88.504
43.700001	88.609
44.400002	88.736
45.000000	88.859
45.500000	88.960
46.200001	89.091
46.799999	89.207
47.500000	89.349
48.200001	89.473
48.700001	89.548
49.400002	89.648
50.000000	89.735
50.799999	89.835
51.500000	89.907
52.200001	89.988
53.000000	90.098
53.799999	90.189
54.500000	90.241
55.200001	90.301
56.000000	90.405
57.000000	90.542
58.000000	90.663
59.000000	90.784
60.000000	90.914
60.799999	91.035
61.500000	91.135
62.200001	91.226
63.000000	91.319
64.000000	91.408
65.000000	91.518
66.000000	91.656
67.000000	91.775
68.000000	91.906
69.000000	92.016
70.000000	92.110
71.000000	92.217
72.000000	92.309
73.000000	92.399
74.000000	92.453
75.000000	92.483
76.199997	92.554
77.500000	92.640
78.800003	92.785
80.000000	92.874
81.199997	92.963
82.500000	93.060
83.800003	93.133
85.000000	93.208
86.199997	93.281
87.500000	93.334
88.500000	93.368
90.000000	93.417
91.199997	93.500
92.500000	93.525
93.800003	93.557
95.000000	93.582
96.199997	93.601
97.500000	93.633
98.800003	93.657
100.000000	93.668
101.500000	93.693
103.000000	93.708
104.400002	93.705
106.000000	93.748
107.500000	93.738
109.000000	93.770
110.599998	93.785
112.000000	93.787
113.800003	93.830
115.000000	93.831
117.199997	93.857
118.000000	93.877
120.599998	93.894
122.000000	93.913
124.099998	93.931
125.000000	93.946
126.500000	93.953
128.000000	93.964
131.500000	93.997
132.000000	93.999
134.000000	94.011
136.000000	94.037
138.000000	94.051
140.000000	94.072
143.000000	94.083
145.000000	94.088
147.500000	94.102
150.000000	94.124
152.500000	94.150
155.000000	94.158
157.500000	94.183
160.000000	94.197
162.500000	94.226
165.000000	94.217
167.500000	94.185
170.000000	94.231
172.500000	94.188
175.000000	94.208
177.500000	94.199
180.000000	94.221
182.500000	94.210
185.000000	94.236
187.500000	94.218
190.000000	94.229
192.500000	94.223
195.000000	94.225
197.500000	94.225
200.000000	94.222
203.000000	94.244
206.000000	94.252
209.000000	94.262
212.000000	94.271
214.000000	94.266
218.000000	94.271
220.000000	94.285
224.000000	94.277
227.000000	94.277
230.000000	94.274
233.000000	94.282
236.000000	94.289
240.000000	94.292
243.000000	94.284
247.000000	94.288
250.000000	94.291
254.000000	94.265
258.000000	94.246
262.000000	94.242
265.000000	94.237
269.000000	94.211
272.000000	94.202
276.000000	94.196
280.000000	94.175
285.000000	94.181
290.000000	94.163
295.000000	94.168
300.000000	94.144
304.000000	94.137
307.000000	94.138
311.000000	94.124
315.000000	94.119
320.000000	94.101
325.000000	94.095
330.000000	94.086
335.000000	94.072
340.000000	94.070
345.000000	94.089
350.000000	94.070
355.000000	94.086
360.000000	94.066
365.000000	94.068
370.000000	94.091
375.000000	94.091
382.000000	94.098
387.000000	94.106
395.000000	94.075
400.000000	94.069
406.000000	94.050
412.000000	94.027
418.000000	94.025
425.000000	94.015
431.000000	94.044
437.000000	94.030
444.000000	94.075
450.000000	94.094
455.000000	94.114
462.000000	94.155
468.000000	94.168
475.000000	94.211
482.000000	94.216
487.000000	94.191
494.000000	94.175
500.000000	94.144
508.000000	94.144
515.000000	94.122
522.000000	94.106
530.000000	94.084
538.000000	94.105
545.000000	94.099
552.000000	94.086
560.000000	94.057
570.000000	94.059
580.000000	94.043
590.000000	94.009
600.000000	94.012
608.000000	93.970
615.000000	93.935
622.000000	93.879
630.000000	93.838
640.000000	93.853
650.000000	93.877
660.000000	93.873
670.000000	93.872
680.000000	93.811
690.000000	93.615
700.000000	93.410
710.000000	93.404
720.000000	93.630
730.000000	93.731
740.000000	93.835
750.000000	93.940
762.000000	93.988
775.000000	94.090
788.000000	94.210
800.000000	94.272
812.000000	94.341
825.000000	94.290
838.000000	94.457
850.000000	94.524
862.000000	94.416
875.000000	94.275
885.000000	94.328
900.000000	94.482
912.000000	94.616
925.000000	94.700
938.000000	94.815
950.000000	94.891
962.000000	95.004
975.000000	95.060
988.000000	95.250
1000.000000	95.346
1015.000000	95.522
1030.000000	95.607
1044.000000	95.766
1060.000000	95.964
1075.000000	96.148
1090.000000	96.265
1106.000000	96.300
1120.000000	96.452
1138.000000	96.685
1150.000000	96.695
1172.000000	96.951
1180.000000	97.022
1206.000000	97.378
1220.000000	97.524
1241.000000	97.739
1250.000000	97.864
1265.000000	98.128
1280.000000	98.409
1315.000000	99.089
1320.000000	99.184
1340.000000	99.510
1360.000000	99.901
1380.000000	100.323
1400.000000	100.464
1430.000000	101.117
1450.000000	101.496
1475.000000	101.803
1500.000000	102.162
1525.000000	102.518
1550.000000	102.886
1575.000000	103.066
1600.000000	103.201
1625.000000	103.407
1650.000000	103.718
1675.000000	103.671
1700.000000	103.753
1725.000000	103.796
1750.000000	104.057
1775.000000	104.293
1800.000000	104.629
1825.000000	105.006
1850.000000	105.123
1875.000000	105.402
1900.000000	105.791
1925.000000	106.092
1950.000000	106.492
1975.000000	107.069
2000.000000	107.032
2030.000000	107.327
2060.000000	107.664
2090.000000	108.508
2120.000000	109.117
2140.000000	109.147
2180.000000	109.962
2200.000000	109.965
2240.000000	110.291
2270.000000	110.978
2300.000000	111.584
2330.000000	111.937
2360.000000	112.369
2400.000000	112.889
2430.000000	113.233
2470.000000	113.476
2500.000000	113.899
2540.000000	114.607
2580.000000	114.885
2620.000000	115.344
2650.000000	115.867
2690.000000	116.422
2720.000000	116.441
2760.000000	116.997
2800.000000	117.241
2850.000000	117.782
2900.000000	118.010
2950.000000	118.176
3000.000000	118.341
3040.000000	118.413
3070.000000	118.533
3110.000000	118.501
3150.000000	118.632
3200.000000	118.487
3250.000000	118.327
3300.000000	118.299
3350.000000	118.026
3400.000000	117.552
3450.000000	117.358
3500.000000	117.036
3550.000000	116.651
3600.000000	116.034
3650.000000	115.814
3700.000000	115.369
3750.000000	114.804
3820.000000	114.068
3870.000000	113.737
3950.000000	112.844
4000.000000	112.398
4060.000000	111.879
4120.000000	111.315
4180.000000	110.866
4250.000000	110.326
4310.000000	109.864
4370.000000	109.426
4440.000000	108.894
4500.000000	108.574
4550.000000	108.277
4620.000000	107.884
4680.000000	107.598
4750.000000	107.223
4820.000000	106.784
4870.000000	106.678
4940.000000	106.493
5000.000000	106.166
5080.000000	105.750
5150.000000	105.447
5220.000000	105.249
5300.000000	105.256
5380.000000	104.878
5450.000000	104.857
5520.000000	104.867
5600.000000	104.545
5700.000000	104.058
5800.000000	101.715
5900.000000	102.536
6000.000000	103.885
6080.000000	105.082
6150.000000	106.172
6220.000000	107.143
6300.000000	106.761
6400.000000	107.525
6500.000000	107.574
6600.000000	107.121
6700.000000	106.503
6800.000000	106.216
6900.000000	105.953
7000.000000	105.361
7100.000000	105.242
7200.000000	105.247
7300.000000	105.023
7400.000000	105.043
7500.000000	105.596
7620.000000	106.225
7750.000000	107.400
7880.000000	108.474
8000.000000	108.872
8120.000000	108.801
8250.000000	108.154
8380.000000	107.928
8500.000000	107.254
8620.000000	106.529
8750.000000	105.173
8850.000000	104.588
9000.000000	104.148
9120.000000	103.892
9250.000000	103.168
9380.000000	102.525
9500.000000	102.242
9620.000000	102.268
9750.000000	102.374
9880.000000	102.016
10000.000000	101.562
10150.000000	101.069
10300.000000	100.868
10440.000000	101.034
10600.000000	102.075
10750.000000	103.604
10900.000000	105.294
11060.000000	106.710
11200.000000	107.781
11380.000000	108.687
11500.000000	108.635
11720.000000	108.433
11800.000000	108.435
12060.000000	108.385
12200.000000	108.132
12410.000000	107.602
12500.000000	107.191
12650.000000	106.228
12800.000000	105.291
13150.000000	102.790
13200.000000	102.393
13400.000000	100.163
13600.000000	97.413
13800.000000	94.702
14000.000000	92.948
14300.000000	92.080
14500.000000	91.831
14750.000000	91.283
15000.000000	90.806
15250.000000	90.125
15500.000000	87.764
15750.000000	85.366
16000.000000	85.013
16250.000000	86.362
16500.000000	87.821
16750.000000	88.471
17000.000000	87.902
17250.000000	86.803
17500.000000	86.486
17750.000000	87.574
18000.000000	88.115
18250.000000	86.755
18500.000000	84.785
18750.000000	83.184
19000.000000	81.767
19250.000000	80.737
19500.000000	81.692
19750.000000	82.075
20000.000000	81.407
