* Measurement data measured by REW V5.31.1
* Source: Frequency response averaged data
* Format: Averaged data produced from the rms magnitudes of R 583, R 584, R 585, R 586, R 587
* Dated: 22-ago-2024 1:30:38
* REW Settings:
*  C-weighting compensation: Off
*  Target level: 75.0 dB
* Note: Averaged data produced from the rms magnitudes of R 583, R 584, R 585, R 586, R 587
* Measurement: R AVG
* Smoothing: None
* Frequency Step: 1/48 octave
* Start Frequency: 20.000 Hz
*
* Freq(Hz)	SPL(dB)
20.000000	88.518
20.299999	88.697
20.600000	88.877
20.900000	89.064
21.200001	89.264
21.400000	89.402
21.799999	89.683
22.000000	89.820
22.400000	90.078
22.700001	90.256
23.000000	90.423
23.299999	90.584
23.600000	90.745
24.000000	90.962
24.299999	91.126
24.700001	91.339
25.000000	91.493
25.400000	91.693
25.799999	91.891
26.200001	92.090
26.500000	92.237
26.900000	92.425
27.200001	92.558
27.600000	92.726
28.000000	92.889
28.500000	93.098
29.000000	93.317
29.500000	93.535
30.000000	93.744
30.400000	93.905
30.700001	94.026
31.100000	94.187
31.500000	94.346
32.000000	94.535
32.500000	94.711
33.000000	94.883
33.500000	95.056
34.000000	95.226
34.500000	95.385
35.000000	95.534
35.500000	95.681
36.000000	95.833
36.500000	95.987
37.000000	96.137
37.500000	96.278
38.200001	96.464
38.700001	96.598
39.500000	96.821
40.000000	96.960
40.599998	97.121
41.200001	97.273
41.799999	97.420
42.500000	97.580
43.099998	97.701
43.700001	97.806
44.400002	97.919
45.000000	98.007
45.500000	98.070
46.200001	98.137
46.799999	98.189
47.500000	98.262
48.200001	98.338
48.700001	98.385
49.400002	98.448
50.000000	98.511
50.799999	98.596
51.500000	98.669
52.200001	98.761
53.000000	98.891
53.799999	98.995
54.500000	99.062
55.200001	99.146
56.000000	99.266
57.000000	99.378
58.000000	99.453
59.000000	99.548
60.000000	99.650
60.799999	99.737
61.500000	99.818
62.200001	99.898
63.000000	99.984
64.000000	100.088
65.000000	100.185
66.000000	100.278
67.000000	100.362
68.000000	100.440
69.000000	100.517
70.000000	100.593
71.000000	100.668
72.000000	100.735
73.000000	100.799
74.000000	100.855
75.000000	100.889
76.199997	100.894
77.500000	100.940
78.800003	101.014
80.000000	101.074
81.199997	101.121
82.500000	101.167
83.800003	101.208
85.000000	101.240
86.199997	101.270
87.500000	101.299
88.500000	101.318
90.000000	101.341
91.199997	101.363
92.500000	101.373
93.800003	101.392
95.000000	101.397
96.199997	101.408
97.500000	101.413
98.800003	101.418
100.000000	101.423
101.500000	101.426
103.000000	101.426
104.400002	101.421
106.000000	101.423
107.500000	101.410
109.000000	101.396
110.599998	101.379
112.000000	101.357
113.800003	101.339
115.000000	101.316
117.199997	101.286
118.000000	101.273
120.599998	101.232
122.000000	101.199
124.099998	101.150
125.000000	101.126
126.500000	101.091
128.000000	101.049
131.500000	100.939
132.000000	100.923
134.000000	100.856
136.000000	100.777
138.000000	100.699
140.000000	100.602
143.000000	100.501
145.000000	100.434
147.500000	100.352
150.000000	100.265
152.500000	100.142
155.000000	100.054
157.500000	99.984
160.000000	99.922
162.500000	99.848
165.000000	99.765
167.500000	99.673
170.000000	99.594
172.500000	99.552
175.000000	99.474
177.500000	99.401
180.000000	99.336
182.500000	99.268
185.000000	99.182
187.500000	99.120
190.000000	99.035
192.500000	98.951
195.000000	98.874
197.500000	98.785
200.000000	98.694
203.000000	98.601
206.000000	98.495
209.000000	98.397
212.000000	98.293
214.000000	98.216
218.000000	98.074
220.000000	98.011
224.000000	97.869
227.000000	97.761
230.000000	97.677
233.000000	97.599
236.000000	97.518
240.000000	97.423
243.000000	97.362
247.000000	97.286
250.000000	97.240
254.000000	97.194
258.000000	97.212
262.000000	97.310
265.000000	97.468
269.000000	97.818
272.000000	98.159
276.000000	98.576
280.000000	98.884
285.000000	98.954
290.000000	98.787
295.000000	98.536
300.000000	98.302
304.000000	98.122
307.000000	97.989
311.000000	97.771
315.000000	97.624
320.000000	97.481
325.000000	97.362
330.000000	97.262
335.000000	97.162
340.000000	97.071
345.000000	96.979
350.000000	96.888
355.000000	96.772
360.000000	96.634
365.000000	96.569
370.000000	96.518
375.000000	96.464
382.000000	96.382
387.000000	96.317
395.000000	96.233
400.000000	96.145
406.000000	96.034
412.000000	95.948
418.000000	95.902
425.000000	95.818
431.000000	95.771
437.000000	95.692
444.000000	95.608
450.000000	95.533
455.000000	95.455
462.000000	95.366
468.000000	95.289
475.000000	95.221
482.000000	95.167
487.000000	95.110
494.000000	95.054
500.000000	94.998
508.000000	94.931
515.000000	94.887
522.000000	94.824
530.000000	94.759
538.000000	94.732
545.000000	94.693
552.000000	94.660
560.000000	94.604
570.000000	94.546
580.000000	94.489
590.000000	94.448
600.000000	94.455
608.000000	94.459
615.000000	94.481
622.000000	94.488
630.000000	94.519
640.000000	94.529
650.000000	94.595
660.000000	94.597
670.000000	94.628
680.000000	94.622
690.000000	94.632
700.000000	94.646
710.000000	94.631
720.000000	94.678
730.000000	94.704
740.000000	94.722
750.000000	94.749
762.000000	94.715
775.000000	94.719
788.000000	94.738
800.000000	94.708
812.000000	94.671
825.000000	94.641
838.000000	94.689
850.000000	94.757
862.000000	94.789
875.000000	94.794
885.000000	94.733
900.000000	94.760
912.000000	94.830
925.000000	94.837
938.000000	94.765
950.000000	94.832
962.000000	95.000
975.000000	95.106
988.000000	95.090
1000.000000	95.220
1015.000000	95.299
1030.000000	95.415
1044.000000	95.525
1060.000000	95.589
1075.000000	95.635
1090.000000	95.757
1106.000000	95.832
1120.000000	95.917
1138.000000	95.951
1150.000000	95.965
1172.000000	96.063
1180.000000	96.056
1206.000000	96.066
1220.000000	96.053
1241.000000	96.057
1250.000000	96.075
1265.000000	96.230
1280.000000	96.291
1315.000000	96.581
1320.000000	96.516
1340.000000	96.478
1360.000000	96.440
1380.000000	96.648
1400.000000	96.803
1430.000000	96.989
1450.000000	97.145
1475.000000	97.421
1500.000000	97.676
1525.000000	98.089
1550.000000	98.110
1575.000000	97.359
1600.000000	97.353
1625.000000	97.458
1650.000000	97.927
1675.000000	98.135
1700.000000	98.182
1725.000000	98.150
1750.000000	98.868
1775.000000	98.995
1800.000000	99.633
1825.000000	100.227
1850.000000	100.401
1875.000000	100.838
1900.000000	101.507
1925.000000	101.372
1950.000000	102.269
1975.000000	102.879
2000.000000	103.000
2030.000000	102.879
2060.000000	102.895
2090.000000	103.338
2120.000000	103.976
2140.000000	103.440
2180.000000	103.668
2200.000000	103.853
2240.000000	103.694
2270.000000	104.329
2300.000000	104.080
2330.000000	104.485
2360.000000	104.833
2400.000000	105.086
2430.000000	105.275
2470.000000	105.446
2500.000000	105.643
2540.000000	106.013
2580.000000	106.454
2620.000000	106.710
2650.000000	107.101
2690.000000	107.442
2720.000000	107.495
2760.000000	107.866
2800.000000	108.161
2850.000000	108.100
2900.000000	107.876
2950.000000	108.649
3000.000000	110.026
3040.000000	110.991
3070.000000	111.432
3110.000000	111.662
3150.000000	111.890
3200.000000	111.896
3250.000000	111.815
3300.000000	111.702
3350.000000	111.613
3400.000000	111.510
3450.000000	111.182
3500.000000	110.989
3550.000000	110.628
3600.000000	110.294
3650.000000	109.925
3700.000000	109.461
3750.000000	109.117
3820.000000	108.426
3870.000000	107.886
3950.000000	106.974
4000.000000	106.296
4060.000000	105.488
4120.000000	104.828
4180.000000	104.929
4250.000000	106.840
4310.000000	109.333
4370.000000	111.270
4440.000000	112.406
4500.000000	112.562
4550.000000	112.490
4620.000000	112.262
4680.000000	112.073
4750.000000	111.865
4820.000000	111.739
4870.000000	111.687
4940.000000	111.620
5000.000000	111.593
5080.000000	111.633
5150.000000	111.693
5220.000000	111.664
5300.000000	111.105
5380.000000	110.216
5450.000000	109.329
5520.000000	108.468
5600.000000	107.849
5700.000000	107.901
5800.000000	108.081
5900.000000	107.634
6000.000000	106.715
6080.000000	105.912
6150.000000	105.266
6220.000000	104.699
6300.000000	104.167
6400.000000	103.578
6500.000000	102.985
6600.000000	102.329
6700.000000	101.848
6800.000000	101.541
6900.000000	101.115
7000.000000	100.524
7100.000000	100.021
7200.000000	99.377
7300.000000	98.490
7400.000000	97.612
7500.000000	96.647
7620.000000	95.420
7750.000000	94.274
7880.000000	93.367
8000.000000	92.336
8120.000000	91.375
8250.000000	91.038
8380.000000	91.521
8500.000000	92.262
8620.000000	92.800
8750.000000	93.062
8850.000000	92.905
9000.000000	92.044
9120.000000	90.927
9250.000000	89.892
9380.000000	88.867
9500.000000	88.032
9620.000000	87.329
9750.000000	86.984
9880.000000	87.437
10000.000000	88.456
10150.000000	89.993
10300.000000	91.085
10440.000000	91.684
10600.000000	91.896
10750.000000	91.835
10900.000000	91.346
11060.000000	90.332
11200.000000	89.053
11380.000000	87.117
11500.000000	85.677
11720.000000	83.392
11800.000000	82.938
12060.000000	84.211
12200.000000	86.001
12410.000000	88.544
12500.000000	89.275
12650.000000	89.861
12800.000000	90.043
13150.000000	90.329
13200.000000	90.351
13400.000000	90.350
13600.000000	89.851
13800.000000	88.913
14000.000000	87.968
14300.000000	87.688
14500.000000	88.771
14750.000000	90.797
15000.000000	92.283
15250.000000	91.981
15500.000000	89.245
15750.000000	84.794
16000.000000	77.634
16250.000000	74.591
16500.000000	79.458
16750.000000	82.352
17000.000000	84.561
17250.000000	86.548
17500.000000	87.030
17750.000000	85.817
18000.000000	84.348
18250.000000	83.607
18500.000000	83.773
18750.000000	84.466
19000.000000	85.043
19250.000000	85.640
19500.000000	86.434
19750.000000	86.975
20000.000000	86.819
