* Measurement data measured by REW V5.31.1
* Source: Frequency response averaged data
* Format: Averaged data produced from the rms magnitudes of L 559, L 560, L 561, L 562, L 563
* Dated: 22-ago-2024 1:02:17
* REW Settings:
*  C-weighting compensation: Off
*  Target level: 75.0 dB
* Note: Averaged data produced from the rms magnitudes of L 559, L 560, L 561, L 562, L 563
* Measurement: L AVG
* Smoothing: None
* Frequency Step: 1/48 octave
* Start Frequency: 20.000 Hz
*
* Freq(Hz)	SPL(dB)
20.000000	66.248
20.299999	66.493
20.600000	66.765
20.900000	67.061
21.200001	67.361
21.400000	67.547
21.799999	67.847
22.000000	67.951
22.400000	68.075
22.700001	68.126
23.000000	68.181
23.299999	68.272
23.600000	68.415
24.000000	68.665
24.299999	68.858
24.700001	69.070
25.000000	69.180
25.400000	69.276
25.799999	69.360
26.200001	69.483
26.500000	69.612
26.900000	69.811
27.200001	69.956
27.600000	70.116
28.000000	70.234
28.500000	70.366
29.000000	70.539
29.500000	70.744
30.000000	70.909
30.400000	70.985
30.700001	71.028
31.100000	71.106
31.500000	71.247
32.000000	71.491
32.500000	71.721
33.000000	71.874
33.500000	71.983
34.000000	72.121
34.500000	72.297
35.000000	72.446
35.500000	72.541
36.000000	72.645
36.500000	72.839
37.000000	73.100
37.500000	73.322
38.200001	73.463
38.700001	73.520
39.500000	73.741
40.000000	73.905
40.599998	74.008
41.200001	74.051
41.799999	74.166
42.500000	74.391
43.099998	74.517
43.700001	74.571
44.400002	74.692
45.000000	74.846
45.500000	74.932
46.200001	75.007
46.799999	75.160
47.500000	75.442
48.200001	75.633
48.700001	75.692
49.400002	75.792
50.000000	75.918
50.799999	76.052
51.500000	76.170
52.200001	76.343
53.000000	76.489
53.799999	76.527
54.500000	76.583
55.200001	76.725
56.000000	76.930
57.000000	77.045
58.000000	77.092
59.000000	77.330
60.000000	77.468
60.799999	77.553
61.500000	77.694
62.200001	77.805
63.000000	77.877
64.000000	77.987
65.000000	78.094
66.000000	78.228
67.000000	78.403
68.000000	78.528
69.000000	78.630
70.000000	78.745
71.000000	78.766
72.000000	78.893
73.000000	79.055
74.000000	79.152
75.000000	79.240
76.199997	79.320
77.500000	79.460
78.800003	79.556
80.000000	79.700
81.199997	79.786
82.500000	79.896
83.800003	80.014
85.000000	80.137
86.199997	80.266
87.500000	80.371
88.500000	80.443
90.000000	80.553
91.199997	80.682
92.500000	80.752
93.800003	80.808
95.000000	80.921
96.199997	81.026
97.500000	81.095
98.800003	81.202
100.000000	81.335
101.500000	81.360
103.000000	81.538
104.400002	81.542
106.000000	81.705
107.500000	81.738
109.000000	81.859
110.599998	81.970
112.000000	81.994
113.800003	82.146
115.000000	82.206
117.199997	82.273
118.000000	82.339
120.599998	82.471
122.000000	82.560
124.099998	82.625
125.000000	82.644
126.500000	82.727
128.000000	82.769
131.500000	82.902
132.000000	82.921
134.000000	83.012
136.000000	83.053
138.000000	83.145
140.000000	83.176
143.000000	83.296
145.000000	83.377
147.500000	83.439
150.000000	83.459
152.500000	83.555
155.000000	83.615
157.500000	83.702
160.000000	83.778
162.500000	83.808
165.000000	83.896
167.500000	83.931
170.000000	84.035
172.500000	84.015
175.000000	84.087
177.500000	84.144
180.000000	84.222
182.500000	84.271
185.000000	84.317
187.500000	84.350
190.000000	84.399
192.500000	84.405
195.000000	84.436
197.500000	84.490
200.000000	84.541
203.000000	84.629
206.000000	84.671
209.000000	84.741
212.000000	84.788
214.000000	84.838
218.000000	84.943
220.000000	84.949
224.000000	85.046
227.000000	85.111
230.000000	85.210
233.000000	85.281
236.000000	85.290
240.000000	85.360
243.000000	85.461
247.000000	85.529
250.000000	85.592
254.000000	85.674
258.000000	85.749
262.000000	85.768
265.000000	85.822
269.000000	85.877
272.000000	85.932
276.000000	86.023
280.000000	86.103
285.000000	86.227
290.000000	86.338
295.000000	86.467
300.000000	86.526
304.000000	86.621
307.000000	86.663
311.000000	86.724
315.000000	86.858
320.000000	86.931
325.000000	87.036
330.000000	87.090
335.000000	87.227
340.000000	87.302
345.000000	87.392
350.000000	87.481
355.000000	87.582
360.000000	87.674
365.000000	87.754
370.000000	87.837
375.000000	87.894
382.000000	88.058
387.000000	88.141
395.000000	88.325
400.000000	88.402
406.000000	88.522
412.000000	88.622
418.000000	88.750
425.000000	88.858
431.000000	89.009
437.000000	89.128
444.000000	89.277
450.000000	89.365
455.000000	89.468
462.000000	89.633
468.000000	89.745
475.000000	89.865
482.000000	90.024
487.000000	90.130
494.000000	90.281
500.000000	90.413
508.000000	90.574
515.000000	90.726
522.000000	90.911
530.000000	91.097
538.000000	91.278
545.000000	91.423
552.000000	91.567
560.000000	91.753
570.000000	91.996
580.000000	92.220
590.000000	92.450
600.000000	92.686
608.000000	92.899
615.000000	93.075
622.000000	93.233
630.000000	93.422
640.000000	93.607
650.000000	93.846
660.000000	94.097
670.000000	94.316
680.000000	94.514
690.000000	94.740
700.000000	94.961
710.000000	95.076
720.000000	95.211
730.000000	95.455
740.000000	95.608
750.000000	95.800
762.000000	95.916
775.000000	96.010
788.000000	96.244
800.000000	96.229
812.000000	96.297
825.000000	96.327
838.000000	96.340
850.000000	96.470
862.000000	96.627
875.000000	96.566
885.000000	96.271
900.000000	96.122
912.000000	96.096
925.000000	96.138
938.000000	96.054
950.000000	95.972
962.000000	96.010
975.000000	95.873
988.000000	95.604
1000.000000	95.564
1015.000000	95.489
1030.000000	95.506
1044.000000	95.340
1060.000000	95.134
1075.000000	95.003
1090.000000	94.903
1106.000000	94.933
1120.000000	94.792
1138.000000	94.570
1150.000000	94.541
1172.000000	94.150
1180.000000	94.037
1206.000000	93.727
1220.000000	93.842
1241.000000	93.714
1250.000000	93.764
1265.000000	93.872
1280.000000	93.691
1315.000000	93.514
1320.000000	93.388
1340.000000	93.052
1360.000000	92.846
1380.000000	92.862
1400.000000	93.001
1430.000000	93.001
1450.000000	93.159
1475.000000	93.502
1500.000000	93.678
1525.000000	93.838
1550.000000	94.018
1575.000000	94.004
1600.000000	94.135
1625.000000	94.124
1650.000000	94.350
1675.000000	94.544
1700.000000	94.767
1725.000000	94.823
1750.000000	95.496
1775.000000	95.742
1800.000000	96.296
1825.000000	96.941
1850.000000	97.156
1875.000000	97.557
1900.000000	98.141
1925.000000	98.458
1950.000000	99.248
1975.000000	100.186
2000.000000	100.499
2030.000000	100.843
2060.000000	101.464
2090.000000	101.815
2120.000000	102.993
2140.000000	102.667
2180.000000	103.072
2200.000000	103.188
2240.000000	103.124
2270.000000	103.434
2300.000000	103.330
2330.000000	103.522
2360.000000	103.408
2400.000000	103.658
2430.000000	103.411
2470.000000	103.463
2500.000000	103.416
2540.000000	103.221
2580.000000	103.395
2620.000000	103.289
2650.000000	103.389
2690.000000	103.535
2720.000000	103.369
2760.000000	103.353
2800.000000	103.441
2850.000000	103.467
2900.000000	103.398
2950.000000	103.444
3000.000000	103.505
3040.000000	103.399
3070.000000	103.354
3110.000000	103.183
3150.000000	103.060
3200.000000	102.816
3250.000000	102.542
3300.000000	102.157
3350.000000	101.954
3400.000000	101.791
3450.000000	101.492
3500.000000	101.188
3550.000000	100.748
3600.000000	100.326
3650.000000	99.986
3700.000000	99.565
3750.000000	99.200
3820.000000	98.669
3870.000000	98.266
3950.000000	97.832
4000.000000	97.756
4060.000000	97.920
4120.000000	98.115
4180.000000	98.387
4250.000000	98.760
4310.000000	99.041
4370.000000	99.269
4440.000000	99.488
4500.000000	99.532
4550.000000	99.464
4620.000000	99.220
4680.000000	98.727
4750.000000	98.109
4820.000000	97.470
4870.000000	97.053
4940.000000	96.542
5000.000000	96.122
5080.000000	95.454
5150.000000	94.749
5220.000000	93.931
5300.000000	92.885
5380.000000	91.842
5450.000000	90.972
5520.000000	90.178
5600.000000	89.459
5700.000000	88.672
5800.000000	88.207
5900.000000	87.988
6000.000000	87.536
6080.000000	86.937
6150.000000	85.863
6220.000000	84.462
6300.000000	82.426
6400.000000	80.142
6500.000000	78.793
6600.000000	78.323
6700.000000	79.375
6800.000000	80.986
6900.000000	82.205
7000.000000	83.066
7100.000000	83.925
7200.000000	84.946
7300.000000	86.037
7400.000000	87.163
7500.000000	87.962
7620.000000	88.880
7750.000000	89.993
7880.000000	90.773
8000.000000	90.409
8120.000000	89.355
8250.000000	88.568
8380.000000	88.079
8500.000000	87.766
8620.000000	87.974
8750.000000	88.210
8850.000000	87.969
9000.000000	87.448
9120.000000	87.256
9250.000000	87.232
9380.000000	87.161
9500.000000	87.007
9620.000000	86.717
9750.000000	86.081
9880.000000	85.355
10000.000000	84.532
10150.000000	83.956
10300.000000	83.402
10440.000000	82.346
10600.000000	80.848
10750.000000	80.446
10900.000000	81.185
11060.000000	82.645
11200.000000	83.748
11380.000000	84.247
11500.000000	83.878
11720.000000	82.812
11800.000000	82.619
12060.000000	82.800
12200.000000	83.135
12410.000000	82.579
12500.000000	81.595
12650.000000	79.791
12800.000000	79.878
13150.000000	82.982
13200.000000	83.134
13400.000000	81.576
13600.000000	78.899
13800.000000	77.048
14000.000000	76.271
14300.000000	74.404
14500.000000	73.188
14750.000000	73.718
15000.000000	73.957
15250.000000	72.043
15500.000000	73.284
15750.000000	73.558
16000.000000	73.617
16250.000000	72.897
16500.000000	70.293
16750.000000	68.485
17000.000000	69.523
17250.000000	70.380
17500.000000	67.626
17750.000000	68.051
18000.000000	70.325
18250.000000	70.778
18500.000000	70.747
18750.000000	70.751
19000.000000	70.758
19250.000000	71.875
19500.000000	73.062
19750.000000	75.103
20000.000000	76.568
