* Measurement data measured by REW V5.31.1
* Source: Frequency response averaged data
* Format: Averaged data produced from the rms magnitudes of R 569, R 570, R 571, R 572, R 573
* Dated: 22-ago-2024 1:12:18
* REW Settings:
*  C-weighting compensation: Off
*  Target level: 75.0 dB
* Note: Averaged data produced from the rms magnitudes of R 569, R 570, R 571, R 572, R 573
* Measurement: R AVG
* Smoothing: None
* Frequency Step: 1/48 octave
* Start Frequency: 20.000 Hz
*
* Freq(Hz)	SPL(dB)
20.000000	68.577
20.299999	68.642
20.600000	68.817
20.900000	69.088
21.200001	69.395
21.400000	69.582
21.799999	69.878
22.000000	69.994
22.400000	70.214
22.700001	70.431
23.000000	70.710
23.299999	71.026
23.600000	71.329
24.000000	71.633
24.299999	71.773
24.700001	71.896
25.000000	72.010
25.400000	72.268
25.799999	72.639
26.200001	73.021
26.500000	73.256
26.900000	73.477
27.200001	73.594
27.600000	73.751
28.000000	73.963
28.500000	74.307
29.000000	74.653
29.500000	74.942
30.000000	75.209
30.400000	75.446
30.700001	75.642
31.100000	75.913
31.500000	76.166
32.000000	76.434
32.500000	76.667
33.000000	76.911
33.500000	77.188
34.000000	77.473
34.500000	77.737
35.000000	77.975
35.500000	78.207
36.000000	78.456
36.500000	78.715
37.000000	78.961
37.500000	79.176
38.200001	79.445
38.700001	79.652
39.500000	80.043
40.000000	80.298
40.599998	80.586
41.200001	80.858
41.799999	81.134
42.500000	81.461
43.099998	81.726
43.700001	81.977
44.400002	82.261
45.000000	82.496
45.500000	82.689
46.200001	82.985
46.799999	83.274
47.500000	83.611
48.200001	83.906
48.700001	84.105
49.400002	84.396
50.000000	84.648
50.799999	84.958
51.500000	85.218
52.200001	85.483
53.000000	85.787
53.799999	86.098
54.500000	86.363
55.200001	86.612
56.000000	86.896
57.000000	87.237
58.000000	87.545
59.000000	87.896
60.000000	88.227
60.799999	88.473
61.500000	88.696
62.200001	88.907
63.000000	89.140
64.000000	89.454
65.000000	89.739
66.000000	90.001
67.000000	90.287
68.000000	90.551
69.000000	90.796
70.000000	91.048
71.000000	91.287
72.000000	91.506
73.000000	91.694
74.000000	91.903
75.000000	92.100
76.199997	92.303
77.500000	92.544
78.800003	92.754
80.000000	92.925
81.199997	93.097
82.500000	93.258
83.800003	93.419
85.000000	93.543
86.199997	93.653
87.500000	93.769
88.500000	93.849
90.000000	93.948
91.199997	94.004
92.500000	94.073
93.800003	94.119
95.000000	94.165
96.199997	94.194
97.500000	94.225
98.800003	94.249
100.000000	94.256
101.500000	94.278
103.000000	94.271
104.400002	94.250
106.000000	94.230
107.500000	94.206
109.000000	94.182
110.599998	94.139
112.000000	94.104
113.800003	94.054
115.000000	94.018
117.199997	93.964
118.000000	93.947
120.599998	93.845
122.000000	93.798
124.099998	93.707
125.000000	93.683
126.500000	93.611
128.000000	93.580
131.500000	93.435
132.000000	93.420
134.000000	93.354
136.000000	93.296
138.000000	93.227
140.000000	93.168
143.000000	93.079
145.000000	93.022
147.500000	92.955
150.000000	92.849
152.500000	92.790
155.000000	92.707
157.500000	92.650
160.000000	92.582
162.500000	92.493
165.000000	92.499
167.500000	92.418
170.000000	92.361
172.500000	92.290
175.000000	92.259
177.500000	92.197
180.000000	92.201
182.500000	92.157
185.000000	92.137
187.500000	92.079
190.000000	92.051
192.500000	92.010
195.000000	91.943
197.500000	91.920
200.000000	91.873
203.000000	91.842
206.000000	91.822
209.000000	91.806
212.000000	91.785
214.000000	91.788
218.000000	91.741
220.000000	91.716
224.000000	91.630
227.000000	91.567
230.000000	91.488
233.000000	91.416
236.000000	91.325
240.000000	91.188
243.000000	91.055
247.000000	90.897
250.000000	91.040
254.000000	91.372
258.000000	91.556
262.000000	91.628
265.000000	91.628
269.000000	91.682
272.000000	91.691
276.000000	91.663
280.000000	91.668
285.000000	91.646
290.000000	91.602
295.000000	91.650
300.000000	91.806
304.000000	91.874
307.000000	91.886
311.000000	91.887
315.000000	91.911
320.000000	91.916
325.000000	91.941
330.000000	91.971
335.000000	91.971
340.000000	91.975
345.000000	92.010
350.000000	92.034
355.000000	92.080
360.000000	92.092
365.000000	92.141
370.000000	92.164
375.000000	92.216
382.000000	92.249
387.000000	92.269
395.000000	92.321
400.000000	92.360
406.000000	92.384
412.000000	92.428
418.000000	92.466
425.000000	92.514
431.000000	92.563
437.000000	92.603
444.000000	92.646
450.000000	92.703
455.000000	92.715
462.000000	92.807
468.000000	92.820
475.000000	92.870
482.000000	92.953
487.000000	92.997
494.000000	93.053
500.000000	93.128
508.000000	93.216
515.000000	93.285
522.000000	93.363
530.000000	93.482
538.000000	93.552
545.000000	93.636
552.000000	93.734
560.000000	93.841
570.000000	93.986
580.000000	94.150
590.000000	94.269
600.000000	94.447
608.000000	94.571
615.000000	94.680
622.000000	94.786
630.000000	94.908
640.000000	95.034
650.000000	95.215
660.000000	95.339
670.000000	95.531
680.000000	95.673
690.000000	95.838
700.000000	95.986
710.000000	96.081
720.000000	96.191
730.000000	96.360
740.000000	96.467
750.000000	96.609
762.000000	96.701
775.000000	96.789
788.000000	96.946
800.000000	96.933
812.000000	96.972
825.000000	96.982
838.000000	96.987
850.000000	97.073
862.000000	97.163
875.000000	97.100
885.000000	96.875
900.000000	96.681
912.000000	96.646
925.000000	96.583
938.000000	96.491
950.000000	96.351
962.000000	96.286
975.000000	96.079
988.000000	95.755
1000.000000	95.680
1015.000000	95.502
1030.000000	95.427
1044.000000	95.234
1060.000000	94.960
1075.000000	94.770
1090.000000	94.648
1106.000000	94.552
1120.000000	94.396
1138.000000	94.130
1150.000000	94.054
1172.000000	93.793
1180.000000	93.796
1206.000000	93.523
1220.000000	93.395
1241.000000	93.162
1250.000000	93.206
1265.000000	93.282
1280.000000	93.116
1315.000000	93.047
1320.000000	92.952
1340.000000	92.813
1360.000000	92.763
1380.000000	92.865
1400.000000	92.979
1430.000000	92.922
1450.000000	93.068
1475.000000	93.246
1500.000000	93.371
1525.000000	93.599
1550.000000	93.756
1575.000000	93.577
1600.000000	93.832
1625.000000	94.194
1650.000000	94.549
1675.000000	94.976
1700.000000	95.359
1725.000000	95.579
1750.000000	96.296
1775.000000	96.667
1800.000000	97.187
1825.000000	97.773
1850.000000	98.152
1875.000000	98.612
1900.000000	99.236
1925.000000	99.678
1950.000000	100.298
1975.000000	101.144
2000.000000	101.639
2030.000000	102.088
2060.000000	103.227
2090.000000	103.626
2120.000000	104.984
2140.000000	105.134
2180.000000	105.965
2200.000000	106.611
2240.000000	107.414
2270.000000	108.031
2300.000000	108.511
2330.000000	109.083
2360.000000	109.508
2400.000000	110.225
2430.000000	110.256
2470.000000	110.452
2500.000000	110.544
2540.000000	110.427
2580.000000	110.769
2620.000000	110.754
2650.000000	110.888
2690.000000	111.040
2720.000000	110.859
2760.000000	110.869
2800.000000	111.089
2850.000000	111.183
2900.000000	111.122
2950.000000	111.309
3000.000000	111.480
3040.000000	111.534
3070.000000	111.596
3110.000000	111.588
3150.000000	111.616
3200.000000	111.567
3250.000000	111.541
3300.000000	111.320
3350.000000	111.127
3400.000000	110.951
3450.000000	110.688
3500.000000	110.508
3550.000000	110.304
3600.000000	110.161
3650.000000	110.042
3700.000000	109.883
3750.000000	109.742
3820.000000	109.724
3870.000000	109.777
3950.000000	109.813
4000.000000	109.716
4060.000000	109.207
4120.000000	108.698
4180.000000	108.340
4250.000000	107.020
4310.000000	106.099
4370.000000	106.328
4440.000000	108.060
4500.000000	108.939
4550.000000	109.191
4620.000000	108.897
4680.000000	108.218
4750.000000	107.211
4820.000000	106.113
4870.000000	105.164
4940.000000	103.880
5000.000000	103.029
5080.000000	101.939
5150.000000	101.120
5220.000000	100.137
5300.000000	99.133
5380.000000	98.171
5450.000000	97.445
5520.000000	96.834
5600.000000	95.732
5700.000000	96.128
5800.000000	97.455
5900.000000	96.785
6000.000000	95.251
6080.000000	93.645
6150.000000	94.006
6220.000000	94.555
6300.000000	94.230
6400.000000	93.007
6500.000000	91.919
6600.000000	90.713
6700.000000	89.672
6800.000000	88.919
6900.000000	88.047
7000.000000	87.338
7100.000000	86.709
7200.000000	86.127
7300.000000	86.213
7400.000000	86.981
7500.000000	88.136
7620.000000	90.512
7750.000000	93.405
7880.000000	96.085
8000.000000	96.851
8120.000000	95.981
8250.000000	94.758
8380.000000	93.692
8500.000000	92.967
8620.000000	92.495
8750.000000	92.148
8850.000000	92.217
9000.000000	92.620
9120.000000	92.493
9250.000000	92.227
9380.000000	92.295
9500.000000	92.121
9620.000000	93.214
9750.000000	93.796
9880.000000	94.911
10000.000000	96.194
10150.000000	96.075
10300.000000	95.688
10440.000000	96.142
10600.000000	97.625
10750.000000	95.926
10900.000000	95.377
11060.000000	95.608
11200.000000	94.758
11380.000000	94.838
11500.000000	95.312
11720.000000	95.767
11800.000000	95.873
12060.000000	95.635
12200.000000	95.596
12410.000000	95.402
12500.000000	94.564
12650.000000	93.293
12800.000000	92.523
13150.000000	93.531
13200.000000	93.627
13400.000000	92.721
13600.000000	91.110
13800.000000	91.480
14000.000000	92.008
14300.000000	90.405
14500.000000	88.059
14750.000000	85.725
15000.000000	86.737
15250.000000	87.194
15500.000000	87.800
15750.000000	86.992
16000.000000	86.259
16250.000000	85.292
16500.000000	83.816
16750.000000	85.560
17000.000000	87.412
17250.000000	87.374
17500.000000	85.120
17750.000000	81.271
18000.000000	78.790
18250.000000	78.303
18500.000000	78.736
18750.000000	80.632
19000.000000	83.074
19250.000000	84.225
19500.000000	85.568
19750.000000	85.920
20000.000000	84.827
