* Measurement data measured by REW V5.31.1
* Source: Frequency response averaged data
* Format: Averaged data produced from the rms magnitudes of L 592, L 595, L 596, L 597
* Dated: 22-ago-2024 1:41:50
* REW Settings:
*  C-weighting compensation: Off
*  Target level: 75.0 dB
* Note: Averaged data produced from the rms magnitudes of L 592, L 595, L 596, L 597
* Measurement: L AVG
* Smoothing: None
* Frequency Step: 1/48 octave
* Start Frequency: 20.000 Hz
*
* Freq(Hz)	SPL(dB)
20.000000	78.575
20.299999	78.772
20.600000	78.952
20.900000	79.129
21.200001	79.320
21.400000	79.463
21.799999	79.788
22.000000	79.962
22.400000	80.312
22.700001	80.558
23.000000	80.784
23.299999	80.995
23.600000	81.200
24.000000	81.479
24.299999	81.695
24.700001	81.982
25.000000	82.187
25.400000	82.444
25.799999	82.688
26.200001	82.935
26.500000	83.129
26.900000	83.393
27.200001	83.589
27.600000	83.838
28.000000	84.070
28.500000	84.341
29.000000	84.606
29.500000	84.870
30.000000	85.129
30.400000	85.327
30.700001	85.470
31.100000	85.660
31.500000	85.860
32.000000	86.132
32.500000	86.427
33.000000	86.720
33.500000	86.989
34.000000	87.238
34.500000	87.488
35.000000	87.751
35.500000	88.019
36.000000	88.271
36.500000	88.504
37.000000	88.733
37.500000	88.968
38.200001	89.295
38.700001	89.514
39.500000	89.845
40.000000	90.056
40.599998	90.316
41.200001	90.571
41.799999	90.815
42.500000	91.093
43.099998	91.332
43.700001	91.568
44.400002	91.816
45.000000	91.989
45.500000	92.108
46.200001	92.246
46.799999	92.332
47.500000	92.418
48.200001	92.573
48.700001	92.747
49.400002	93.009
50.000000	93.192
50.799999	93.399
51.500000	93.600
52.200001	93.818
53.000000	94.068
53.799999	94.322
54.500000	94.535
55.200001	94.735
56.000000	94.967
57.000000	95.245
58.000000	95.490
59.000000	95.756
60.000000	95.998
60.799999	96.158
61.500000	96.301
62.200001	96.448
63.000000	96.608
64.000000	96.809
65.000000	97.008
66.000000	97.184
67.000000	97.358
68.000000	97.542
69.000000	97.712
70.000000	97.874
71.000000	98.040
72.000000	98.184
73.000000	98.318
74.000000	98.440
75.000000	98.554
76.199997	98.693
77.500000	98.830
78.800003	98.959
80.000000	99.074
81.199997	99.169
82.500000	99.288
83.800003	99.417
85.000000	99.524
86.199997	99.612
87.500000	99.709
88.500000	99.775
90.000000	99.857
91.199997	99.922
92.500000	100.007
93.800003	100.069
95.000000	100.117
96.199997	100.172
97.500000	100.213
98.800003	100.254
100.000000	100.302
101.500000	100.346
103.000000	100.399
104.400002	100.440
106.000000	100.479
107.500000	100.506
109.000000	100.529
110.599998	100.567
112.000000	100.585
113.800003	100.602
115.000000	100.613
117.199997	100.648
118.000000	100.652
120.599998	100.663
122.000000	100.671
124.099998	100.686
125.000000	100.689
126.500000	100.695
128.000000	100.692
131.500000	100.678
132.000000	100.673
134.000000	100.656
136.000000	100.652
138.000000	100.630
140.000000	100.608
143.000000	100.570
145.000000	100.558
147.500000	100.555
150.000000	100.539
152.500000	100.535
155.000000	100.538
157.500000	100.556
160.000000	100.570
162.500000	100.555
165.000000	100.554
167.500000	100.558
170.000000	100.555
172.500000	100.558
175.000000	100.549
177.500000	100.550
180.000000	100.535
182.500000	100.527
185.000000	100.525
187.500000	100.519
190.000000	100.513
192.500000	100.503
195.000000	100.490
197.500000	100.478
200.000000	100.464
203.000000	100.455
206.000000	100.438
209.000000	100.423
212.000000	100.390
214.000000	100.371
218.000000	100.329
220.000000	100.314
224.000000	100.269
227.000000	100.238
230.000000	100.213
233.000000	100.191
236.000000	100.171
240.000000	100.153
243.000000	100.136
247.000000	100.113
250.000000	100.092
254.000000	100.056
258.000000	100.028
262.000000	100.015
265.000000	99.997
269.000000	99.987
272.000000	99.988
276.000000	99.995
280.000000	100.005
285.000000	100.018
290.000000	100.033
295.000000	100.047
300.000000	100.047
304.000000	100.042
307.000000	100.018
311.000000	99.973
315.000000	99.949
320.000000	99.931
325.000000	99.892
330.000000	99.867
335.000000	99.830
340.000000	99.799
345.000000	99.795
350.000000	99.770
355.000000	99.740
360.000000	99.657
365.000000	99.607
370.000000	99.610
375.000000	99.585
382.000000	99.554
387.000000	99.518
395.000000	99.487
400.000000	99.457
406.000000	99.422
412.000000	99.356
418.000000	99.305
425.000000	99.251
431.000000	99.220
437.000000	99.173
444.000000	99.132
450.000000	99.073
455.000000	99.040
462.000000	99.039
468.000000	98.968
475.000000	98.961
482.000000	98.964
487.000000	98.928
494.000000	98.929
500.000000	98.910
508.000000	98.909
515.000000	98.897
522.000000	98.886
530.000000	98.879
538.000000	98.848
545.000000	98.826
552.000000	98.792
560.000000	98.769
570.000000	98.731
580.000000	98.693
590.000000	98.653
600.000000	98.647
608.000000	98.634
615.000000	98.639
622.000000	98.606
630.000000	98.617
640.000000	98.593
650.000000	98.641
660.000000	98.649
670.000000	98.666
680.000000	98.651
690.000000	98.669
700.000000	98.701
710.000000	98.700
720.000000	98.726
730.000000	98.778
740.000000	98.833
750.000000	98.853
762.000000	98.831
775.000000	98.831
788.000000	98.889
800.000000	98.882
812.000000	98.809
825.000000	98.766
838.000000	98.726
850.000000	98.796
862.000000	98.849
875.000000	98.830
885.000000	98.673
900.000000	98.670
912.000000	98.713
925.000000	98.744
938.000000	98.674
950.000000	98.659
962.000000	98.760
975.000000	98.833
988.000000	98.601
1000.000000	98.529
1015.000000	98.431
1030.000000	98.339
1044.000000	98.343
1060.000000	98.176
1075.000000	97.768
1090.000000	97.631
1106.000000	97.528
1120.000000	97.532
1138.000000	97.442
1150.000000	97.302
1172.000000	97.185
1180.000000	97.135
1206.000000	97.122
1220.000000	97.012
1241.000000	96.689
1250.000000	96.704
1265.000000	96.852
1280.000000	96.890
1315.000000	97.144
1320.000000	96.964
1340.000000	96.593
1360.000000	96.520
1380.000000	96.961
1400.000000	97.312
1430.000000	97.608
1450.000000	98.095
1475.000000	98.551
1500.000000	98.913
1525.000000	99.516
1550.000000	100.338
1575.000000	100.349
1600.000000	100.893
1625.000000	101.499
1650.000000	102.038
1675.000000	102.930
1700.000000	103.497
1725.000000	103.670
1750.000000	104.595
1775.000000	105.154
1800.000000	105.969
1825.000000	106.656
1850.000000	107.114
1875.000000	107.650
1900.000000	108.354
1925.000000	108.767
1950.000000	109.265
1975.000000	109.815
2000.000000	110.213
2030.000000	110.631
2060.000000	111.415
2090.000000	111.063
2120.000000	111.740
2140.000000	112.275
2180.000000	112.002
2200.000000	112.474
2240.000000	112.771
2270.000000	112.887
2300.000000	113.112
2330.000000	113.193
2360.000000	113.381
2400.000000	113.724
2430.000000	113.662
2470.000000	114.051
2500.000000	113.868
2540.000000	113.665
2580.000000	114.026
2620.000000	113.957
2650.000000	114.094
2690.000000	114.152
2720.000000	114.404
2760.000000	114.343
2800.000000	114.587
2850.000000	114.764
2900.000000	114.614
2950.000000	114.719
3000.000000	114.762
3040.000000	114.757
3070.000000	114.799
3110.000000	114.692
3150.000000	114.488
3200.000000	114.324
3250.000000	113.993
3300.000000	113.661
3350.000000	113.206
3400.000000	112.908
3450.000000	112.668
3500.000000	112.282
3550.000000	112.070
3600.000000	111.704
3650.000000	111.487
3700.000000	111.249
3750.000000	111.054
3820.000000	110.750
3870.000000	110.567
3950.000000	110.296
4000.000000	110.227
4060.000000	110.126
4120.000000	110.105
4180.000000	110.012
4250.000000	109.908
4310.000000	109.735
4370.000000	109.627
4440.000000	109.450
4500.000000	109.305
4550.000000	109.155
4620.000000	108.962
4680.000000	108.828
4750.000000	108.694
4820.000000	108.605
4870.000000	108.567
4940.000000	108.597
5000.000000	108.688
5080.000000	108.846
5150.000000	109.124
5220.000000	109.518
5300.000000	110.078
5380.000000	110.523
5450.000000	110.866
5520.000000	111.151
5600.000000	111.386
5700.000000	111.255
5800.000000	110.620
5900.000000	109.713
6000.000000	108.657
6080.000000	107.781
6150.000000	107.012
6220.000000	106.265
6300.000000	105.454
6400.000000	104.508
6500.000000	103.651
6600.000000	102.855
6700.000000	102.055
6800.000000	101.206
6900.000000	100.278
7000.000000	99.162
7100.000000	97.834
7200.000000	96.856
7300.000000	97.482
7400.000000	98.826
7500.000000	98.873
7620.000000	98.060
7750.000000	97.100
7880.000000	96.134
8000.000000	95.110
8120.000000	93.557
8250.000000	91.500
8380.000000	91.788
8500.000000	96.029
8620.000000	99.384
8750.000000	101.205
8850.000000	101.641
9000.000000	101.636
9120.000000	101.312
9250.000000	100.868
9380.000000	100.204
9500.000000	99.127
9620.000000	97.568
9750.000000	95.641
9880.000000	94.018
10000.000000	93.026
10150.000000	91.878
10300.000000	90.017
10440.000000	88.294
10600.000000	86.468
10750.000000	85.897
10900.000000	86.270
11060.000000	87.245
11200.000000	88.050
11380.000000	89.078
11500.000000	89.607
11720.000000	90.649
11800.000000	91.075
12060.000000	92.391
12200.000000	92.959
12410.000000	93.401
12500.000000	93.787
12650.000000	94.352
12800.000000	94.434
13150.000000	94.942
13200.000000	94.900
13400.000000	93.545
13600.000000	91.800
13800.000000	90.882
14000.000000	91.034
14300.000000	91.686
14500.000000	92.762
14750.000000	94.580
15000.000000	95.064
15250.000000	92.126
15500.000000	88.730
15750.000000	85.938
16000.000000	82.755
16250.000000	80.792
16500.000000	81.965
16750.000000	84.475
17000.000000	86.691
17250.000000	89.239
17500.000000	90.937
17750.000000	90.951
18000.000000	90.232
18250.000000	89.255
18500.000000	87.459
18750.000000	86.242
19000.000000	87.099
19250.000000	88.201
19500.000000	89.637
19750.000000	90.757
20000.000000	90.294
