* Measurement data measured by REW V5.31.1
* Source: Frequency response averaged data
* Format: Averaged data produced from the rms magnitudes of L 579, L 580, L 581, L 582
* Dated: 22-ago-2024 1:27:08
* REW Settings:
*  C-weighting compensation: Off
*  Target level: 75.0 dB
* Note: Averaged data produced from the rms magnitudes of L 579, L 580, L 581, L 582
* Measurement: L AVG
* Smoothing: None
* Frequency Step: 1/48 octave
* Start Frequency: 20.000 Hz
*
* Freq(Hz)	SPL(dB)
20.000000	89.235
20.299999	89.430
20.600000	89.622
20.900000	89.816
21.200001	90.012
21.400000	90.144
21.799999	90.406
22.000000	90.535
22.400000	90.784
22.700001	90.965
23.000000	91.141
23.299999	91.317
23.600000	91.492
24.000000	91.721
24.299999	91.887
24.700001	92.094
25.000000	92.240
25.400000	92.428
25.799999	92.618
26.200001	92.817
26.500000	92.970
26.900000	93.172
27.200001	93.315
27.600000	93.491
28.000000	93.657
28.500000	93.864
29.000000	94.082
29.500000	94.301
30.000000	94.500
30.400000	94.644
30.700001	94.747
31.100000	94.885
31.500000	95.025
32.000000	95.195
32.500000	95.345
33.000000	95.475
33.500000	95.605
34.000000	95.756
34.500000	95.927
35.000000	96.105
35.500000	96.274
36.000000	96.433
36.500000	96.587
37.000000	96.737
37.500000	96.882
38.200001	97.071
38.700001	97.200
39.500000	97.406
40.000000	97.533
40.599998	97.681
41.200001	97.819
41.799999	97.950
42.500000	98.099
43.099998	98.224
43.700001	98.341
44.400002	98.462
45.000000	98.549
45.500000	98.609
46.200001	98.673
46.799999	98.700
47.500000	98.695
48.200001	98.663
48.700001	98.637
49.400002	98.625
50.000000	98.669
50.799999	98.800
51.500000	98.912
52.200001	98.974
53.000000	99.038
53.799999	99.152
54.500000	99.260
55.200001	99.347
56.000000	99.439
57.000000	99.561
58.000000	99.677
59.000000	99.784
60.000000	99.887
60.799999	99.971
61.500000	100.045
62.200001	100.123
63.000000	100.214
64.000000	100.314
65.000000	100.402
66.000000	100.484
67.000000	100.560
68.000000	100.629
69.000000	100.693
70.000000	100.757
71.000000	100.814
72.000000	100.866
73.000000	100.917
74.000000	100.965
75.000000	100.996
76.199997	101.003
77.500000	101.035
78.800003	101.103
80.000000	101.156
81.199997	101.199
82.500000	101.234
83.800003	101.272
85.000000	101.308
86.199997	101.334
87.500000	101.366
88.500000	101.378
90.000000	101.420
91.199997	101.439
92.500000	101.440
93.800003	101.447
95.000000	101.460
96.199997	101.467
97.500000	101.472
98.800003	101.477
100.000000	101.473
101.500000	101.480
103.000000	101.468
104.400002	101.466
106.000000	101.448
107.500000	101.433
109.000000	101.418
110.599998	101.407
112.000000	101.391
113.800003	101.367
115.000000	101.351
117.199997	101.319
118.000000	101.313
120.599998	101.273
122.000000	101.248
124.099998	101.212
125.000000	101.188
126.500000	101.156
128.000000	101.115
131.500000	101.026
132.000000	101.011
134.000000	100.952
136.000000	100.891
138.000000	100.831
140.000000	100.760
143.000000	100.656
145.000000	100.593
147.500000	100.467
150.000000	100.366
152.500000	100.279
155.000000	100.195
157.500000	100.115
160.000000	100.038
162.500000	99.955
165.000000	99.888
167.500000	99.794
170.000000	99.710
172.500000	99.659
175.000000	99.585
177.500000	99.508
180.000000	99.459
182.500000	99.384
185.000000	99.332
187.500000	99.257
190.000000	99.198
192.500000	99.126
195.000000	99.052
197.500000	98.977
200.000000	98.905
203.000000	98.833
206.000000	98.746
209.000000	98.663
212.000000	98.568
214.000000	98.502
218.000000	98.371
220.000000	98.294
224.000000	98.150
227.000000	98.045
230.000000	97.945
233.000000	97.849
236.000000	97.758
240.000000	97.677
243.000000	97.612
247.000000	97.547
250.000000	97.501
254.000000	97.434
258.000000	97.398
262.000000	97.376
265.000000	97.377
269.000000	97.390
272.000000	97.429
276.000000	97.526
280.000000	97.677
285.000000	97.971
290.000000	98.249
295.000000	98.427
300.000000	98.394
304.000000	98.264
307.000000	98.176
311.000000	98.058
315.000000	97.945
320.000000	97.859
325.000000	97.786
330.000000	97.551
335.000000	97.275
340.000000	97.226
345.000000	97.196
350.000000	97.123
355.000000	97.056
360.000000	96.964
365.000000	96.891
370.000000	96.823
375.000000	96.750
382.000000	96.653
387.000000	96.584
395.000000	96.478
400.000000	96.414
406.000000	96.331
412.000000	96.247
418.000000	96.179
425.000000	96.094
431.000000	96.036
437.000000	95.958
444.000000	95.852
450.000000	95.779
455.000000	95.717
462.000000	95.646
468.000000	95.551
475.000000	95.482
482.000000	95.420
487.000000	95.367
494.000000	95.305
500.000000	95.232
508.000000	95.173
515.000000	95.134
522.000000	95.068
530.000000	95.002
538.000000	94.987
545.000000	94.936
552.000000	94.882
560.000000	94.821
570.000000	94.735
580.000000	94.665
590.000000	94.590
600.000000	94.564
608.000000	94.507
615.000000	94.482
622.000000	94.448
630.000000	94.420
640.000000	94.388
650.000000	94.423
660.000000	94.408
670.000000	94.421
680.000000	94.405
690.000000	94.413
700.000000	94.418
710.000000	94.357
720.000000	94.401
730.000000	94.423
740.000000	94.452
750.000000	94.452
762.000000	94.414
775.000000	94.435
788.000000	94.464
800.000000	94.469
812.000000	94.476
825.000000	94.451
838.000000	94.498
850.000000	94.582
862.000000	94.585
875.000000	94.544
885.000000	94.475
900.000000	94.509
912.000000	94.541
925.000000	94.603
938.000000	94.675
950.000000	94.713
962.000000	94.821
975.000000	94.874
988.000000	94.801
1000.000000	94.898
1015.000000	94.997
1030.000000	95.100
1044.000000	95.188
1060.000000	95.209
1075.000000	95.158
1090.000000	95.186
1106.000000	95.188
1120.000000	95.273
1138.000000	95.350
1150.000000	95.412
1172.000000	95.578
1180.000000	95.623
1206.000000	95.750
1220.000000	95.783
1241.000000	95.807
1250.000000	95.846
1265.000000	96.001
1280.000000	96.068
1315.000000	96.327
1320.000000	96.286
1340.000000	96.216
1360.000000	96.206
1380.000000	96.444
1400.000000	96.566
1430.000000	96.693
1450.000000	96.816
1475.000000	97.025
1500.000000	97.188
1525.000000	97.596
1550.000000	97.938
1575.000000	97.925
1600.000000	97.896
1625.000000	97.658
1650.000000	97.979
1675.000000	98.240
1700.000000	98.334
1725.000000	98.353
1750.000000	99.124
1775.000000	99.329
1800.000000	99.954
1825.000000	100.580
1850.000000	100.783
1875.000000	101.204
1900.000000	101.855
1925.000000	101.894
1950.000000	102.744
1975.000000	103.363
2000.000000	103.561
2030.000000	103.542
2060.000000	103.621
2090.000000	104.054
2120.000000	104.841
2140.000000	104.341
2180.000000	104.556
2200.000000	104.785
2240.000000	104.556
2270.000000	105.174
2300.000000	104.951
2330.000000	105.364
2360.000000	105.669
2400.000000	105.952
2430.000000	106.178
2470.000000	106.344
2500.000000	106.592
2540.000000	107.013
2580.000000	107.465
2620.000000	107.759
2650.000000	108.169
2690.000000	108.575
2720.000000	108.630
2760.000000	109.097
2800.000000	109.534
2850.000000	109.803
2900.000000	110.062
2950.000000	110.342
3000.000000	110.699
3040.000000	111.328
3070.000000	111.878
3110.000000	112.516
3150.000000	112.955
3200.000000	112.934
3250.000000	112.845
3300.000000	112.734
3350.000000	112.613
3400.000000	112.421
3450.000000	112.020
3500.000000	111.742
3550.000000	111.304
3600.000000	110.910
3650.000000	110.484
3700.000000	109.984
3750.000000	109.570
3820.000000	108.834
3870.000000	108.295
3950.000000	107.515
4000.000000	107.016
4060.000000	106.552
4120.000000	106.295
4180.000000	106.569
4250.000000	107.836
4310.000000	109.294
4370.000000	110.171
4440.000000	110.580
4500.000000	110.606
4550.000000	110.648
4620.000000	110.764
4680.000000	110.917
4750.000000	111.065
4820.000000	111.235
4870.000000	111.372
4940.000000	111.566
5000.000000	111.755
5080.000000	112.017
5150.000000	112.233
5220.000000	112.472
5300.000000	112.591
5380.000000	112.488
5450.000000	112.158
5520.000000	111.580
5600.000000	110.895
5700.000000	110.474
5800.000000	110.054
5900.000000	109.457
6000.000000	108.614
6080.000000	107.821
6150.000000	107.129
6220.000000	106.475
6300.000000	105.794
6400.000000	105.104
6500.000000	104.576
6600.000000	104.210
6700.000000	103.929
6800.000000	103.638
6900.000000	103.326
7000.000000	103.005
7100.000000	102.624
7200.000000	102.021
7300.000000	101.220
7400.000000	100.424
7500.000000	99.790
7620.000000	99.022
7750.000000	98.157
7880.000000	97.883
8000.000000	97.883
8120.000000	98.008
8250.000000	98.093
8380.000000	97.834
8500.000000	97.454
8620.000000	97.136
8750.000000	96.665
8850.000000	96.084
9000.000000	95.038
9120.000000	94.210
9250.000000	93.386
9380.000000	92.633
9500.000000	91.885
9620.000000	91.148
9750.000000	90.140
9880.000000	89.156
10000.000000	88.759
10150.000000	90.078
10300.000000	91.707
10440.000000	92.333
10600.000000	92.145
10750.000000	91.675
10900.000000	91.042
11060.000000	90.057
11200.000000	88.867
11380.000000	87.079
11500.000000	85.945
11720.000000	83.926
11800.000000	83.366
12060.000000	82.399
12200.000000	82.935
12410.000000	84.853
12500.000000	85.622
12650.000000	86.559
12800.000000	86.812
13150.000000	86.950
13200.000000	87.097
13400.000000	87.312
13600.000000	86.565
13800.000000	85.046
14000.000000	84.956
14300.000000	87.672
14500.000000	90.131
14750.000000	92.823
15000.000000	94.701
15250.000000	95.039
15500.000000	93.057
15750.000000	89.622
16000.000000	85.265
16250.000000	77.887
16500.000000	76.691
16750.000000	81.710
17000.000000	84.356
17250.000000	86.992
17500.000000	87.977
17750.000000	85.939
18000.000000	83.773
18250.000000	82.989
18500.000000	84.448
18750.000000	86.652
19000.000000	88.319
19250.000000	89.017
19500.000000	89.082
19750.000000	88.644
20000.000000	87.289
