* Measurement data measured by REW V5.31.1
* Source: Frequency response averaged data
* Format: Averaged data produced from the rms magnitudes of R 524, R 525, R 526, R 527, R 528
* Dated: 21/08/2024 03:12:03 AM
* REW Settings:
*  C-weighting compensation: Off
*  Target level: 75.0 dB
* Note: Averaged data produced from the rms magnitudes of R 524, R 525, R 526, R 527, R 528
* Measurement: R AVG
* Smoothing: None
* Frequency Step: 1/48 octave
* Start Frequency: 20.000 Hz
*
* Freq(Hz)	SPL(dB)
20.000000	65.560
20.299999	65.877
20.600000	66.225
20.900000	66.557
21.200001	66.832
21.400000	66.977
21.799999	67.188
22.000000	67.268
22.400000	67.409
22.700001	67.527
23.000000	67.667
23.299999	67.834
23.600000	68.028
24.000000	68.323
24.299999	68.565
24.700001	68.896
25.000000	69.135
25.400000	69.426
25.799999	69.675
26.200001	69.899
26.500000	70.073
26.900000	70.346
27.200001	70.593
27.600000	70.967
28.000000	71.345
28.500000	71.734
29.000000	71.983
29.500000	72.158
30.000000	72.398
30.400000	72.679
30.700001	72.916
31.100000	73.207
31.500000	73.418
32.000000	73.578
32.500000	73.732
33.000000	73.985
33.500000	74.315
34.000000	74.612
34.500000	74.831
35.000000	75.033
35.500000	75.293
36.000000	75.598
36.500000	75.876
37.000000	76.098
37.500000	76.311
38.200001	76.680
38.700001	76.962
39.500000	77.327
40.000000	77.535
40.599998	77.842
41.200001	78.181
41.799999	78.468
42.500000	78.714
43.099998	78.925
43.700001	79.187
44.400002	79.514
45.000000	79.762
45.500000	79.949
46.200001	80.215
46.799999	80.443
47.500000	80.686
48.200001	80.945
48.700001	81.162
49.400002	81.461
50.000000	81.669
50.799999	81.922
51.500000	82.175
52.200001	82.423
53.000000	82.677
53.799999	82.946
54.500000	83.181
55.200001	83.396
56.000000	83.646
57.000000	83.989
58.000000	84.337
59.000000	84.633
60.000000	84.886
60.799999	85.112
61.500000	85.325
62.200001	85.520
63.000000	85.726
64.000000	86.025
65.000000	86.317
66.000000	86.590
67.000000	86.888
68.000000	87.171
69.000000	87.441
70.000000	87.708
71.000000	87.963
72.000000	88.205
73.000000	88.434
74.000000	88.633
75.000000	88.825
76.199997	89.045
77.500000	89.342
78.800003	89.629
80.000000	89.878
81.199997	90.109
82.500000	90.346
83.800003	90.585
85.000000	90.791
86.199997	90.977
87.500000	91.163
88.500000	91.319
90.000000	91.503
91.199997	91.706
92.500000	91.846
93.800003	92.011
95.000000	92.155
96.199997	92.281
97.500000	92.416
98.800003	92.554
100.000000	92.664
101.500000	92.803
103.000000	92.931
104.400002	93.039
106.000000	93.163
107.500000	93.257
109.000000	93.336
110.599998	93.443
112.000000	93.503
113.800003	93.616
115.000000	93.663
117.199997	93.755
118.000000	93.783
120.599998	93.878
122.000000	93.919
124.099998	93.983
125.000000	94.000
126.500000	94.054
128.000000	94.091
131.500000	94.180
132.000000	94.200
134.000000	94.249
136.000000	94.293
138.000000	94.332
140.000000	94.369
143.000000	94.421
145.000000	94.452
147.500000	94.494
150.000000	94.528
152.500000	94.544
155.000000	94.581
157.500000	94.589
160.000000	94.580
162.500000	94.534
165.000000	94.528
167.500000	94.534
170.000000	94.483
172.500000	94.456
175.000000	94.425
177.500000	94.391
180.000000	94.352
182.500000	94.332
185.000000	94.293
187.500000	94.265
190.000000	94.230
192.500000	94.204
195.000000	94.170
197.500000	94.135
200.000000	94.105
203.000000	94.084
206.000000	94.069
209.000000	94.039
212.000000	94.021
214.000000	93.994
218.000000	93.984
220.000000	93.966
224.000000	93.957
227.000000	93.952
230.000000	93.936
233.000000	93.917
236.000000	93.904
240.000000	93.879
243.000000	93.868
247.000000	93.879
250.000000	93.849
254.000000	93.796
258.000000	93.783
262.000000	93.789
265.000000	93.784
269.000000	93.776
272.000000	93.776
276.000000	93.786
280.000000	93.807
285.000000	93.858
290.000000	93.938
295.000000	94.045
300.000000	94.198
304.000000	94.320
307.000000	94.395
311.000000	94.441
315.000000	94.393
320.000000	94.298
325.000000	94.187
330.000000	94.087
335.000000	94.030
340.000000	94.005
345.000000	94.048
350.000000	94.156
355.000000	94.369
360.000000	94.661
365.000000	94.946
370.000000	95.057
375.000000	94.964
382.000000	94.747
387.000000	94.635
395.000000	94.486
400.000000	94.410
406.000000	94.316
412.000000	94.265
418.000000	94.194
425.000000	94.175
431.000000	94.163
437.000000	94.148
444.000000	94.138
450.000000	94.152
455.000000	94.160
462.000000	94.154
468.000000	94.117
475.000000	94.103
482.000000	94.106
487.000000	94.094
494.000000	94.076
500.000000	94.070
508.000000	94.100
515.000000	94.127
522.000000	94.151
530.000000	94.159
538.000000	94.204
545.000000	94.221
552.000000	94.229
560.000000	94.253
570.000000	94.308
580.000000	94.330
590.000000	94.353
600.000000	94.378
608.000000	94.377
615.000000	94.388
622.000000	94.381
630.000000	94.402
640.000000	94.433
650.000000	94.509
660.000000	94.555
670.000000	94.629
680.000000	94.660
690.000000	94.636
700.000000	94.339
710.000000	93.880
720.000000	94.036
730.000000	94.238
740.000000	94.429
750.000000	94.562
762.000000	94.647
775.000000	94.746
788.000000	94.841
800.000000	94.835
812.000000	94.895
825.000000	94.910
838.000000	94.998
850.000000	95.071
862.000000	95.097
875.000000	95.155
885.000000	95.117
900.000000	95.256
912.000000	95.359
925.000000	95.462
938.000000	95.525
950.000000	95.659
962.000000	95.758
975.000000	95.746
988.000000	95.777
1000.000000	95.919
1015.000000	95.979
1030.000000	96.111
1044.000000	96.153
1060.000000	96.190
1075.000000	96.255
1090.000000	96.293
1106.000000	96.385
1120.000000	96.441
1138.000000	96.519
1150.000000	96.615
1172.000000	96.615
1180.000000	96.685
1206.000000	96.654
1220.000000	96.829
1241.000000	96.712
1250.000000	96.736
1265.000000	96.998
1280.000000	96.929
1315.000000	97.047
1320.000000	96.988
1340.000000	96.851
1360.000000	96.709
1380.000000	96.784
1400.000000	96.906
1430.000000	96.918
1450.000000	96.990
1475.000000	97.387
1500.000000	97.846
1525.000000	98.044
1550.000000	98.223
1575.000000	98.254
1600.000000	98.442
1625.000000	98.467
1650.000000	98.988
1675.000000	99.170
1700.000000	99.586
1725.000000	99.886
1750.000000	100.229
1775.000000	100.564
1800.000000	101.082
1825.000000	101.371
1850.000000	101.735
1875.000000	101.938
1900.000000	102.330
1925.000000	102.589
1950.000000	103.147
1975.000000	103.701
2000.000000	103.715
2030.000000	104.038
2060.000000	104.386
2090.000000	105.364
2120.000000	105.934
2140.000000	105.730
2180.000000	106.590
2200.000000	106.529
2240.000000	107.198
2270.000000	107.689
2300.000000	108.163
2330.000000	108.582
2360.000000	108.815
2400.000000	109.125
2430.000000	109.386
2470.000000	109.824
2500.000000	110.246
2540.000000	110.866
2580.000000	111.342
2620.000000	111.743
2650.000000	112.350
2690.000000	112.971
2720.000000	112.943
2760.000000	113.763
2800.000000	114.068
2850.000000	114.629
2900.000000	114.903
2950.000000	115.400
3000.000000	115.644
3040.000000	115.814
3070.000000	115.972
3110.000000	116.229
3150.000000	116.519
3200.000000	116.721
3250.000000	116.767
3300.000000	116.989
3350.000000	117.022
3400.000000	116.601
3450.000000	117.034
3500.000000	116.705
3550.000000	116.802
3600.000000	116.608
3650.000000	116.494
3700.000000	116.371
3750.000000	115.997
3820.000000	115.741
3870.000000	115.453
3950.000000	114.445
4000.000000	114.888
4060.000000	114.688
4120.000000	114.249
4180.000000	113.795
4250.000000	113.152
4310.000000	112.529
4370.000000	112.056
4440.000000	111.480
4500.000000	111.198
4550.000000	110.749
4620.000000	110.332
4680.000000	109.760
4750.000000	109.179
4820.000000	108.597
4870.000000	108.064
4940.000000	107.743
5000.000000	107.252
5080.000000	106.662
5150.000000	106.771
5220.000000	107.984
5300.000000	109.516
5380.000000	110.435
5450.000000	110.843
5520.000000	111.213
5600.000000	111.528
5700.000000	111.892
5800.000000	111.761
5900.000000	112.288
6000.000000	112.701
6080.000000	112.513
6150.000000	112.768
6220.000000	112.794
6300.000000	112.564
6400.000000	112.853
6500.000000	112.476
6600.000000	111.898
6700.000000	111.000
6800.000000	109.837
6900.000000	108.912
7000.000000	108.077
7100.000000	107.183
7200.000000	106.495
7300.000000	105.802
7400.000000	105.461
7500.000000	105.411
7620.000000	106.469
7750.000000	108.459
7880.000000	109.845
8000.000000	110.658
8120.000000	110.749
8250.000000	110.510
8380.000000	109.963
8500.000000	109.270
8620.000000	108.322
8750.000000	107.994
8850.000000	108.498
9000.000000	110.705
9120.000000	111.162
9250.000000	109.336
9380.000000	106.553
9500.000000	104.023
9620.000000	102.034
9750.000000	100.637
9880.000000	99.937
10000.000000	99.796
10150.000000	100.382
10300.000000	100.934
10440.000000	101.451
10600.000000	101.985
10750.000000	102.873
10900.000000	103.977
11060.000000	105.631
11200.000000	107.061
11380.000000	107.646
11500.000000	107.713
11720.000000	108.573
11800.000000	108.530
12060.000000	107.339
12200.000000	106.532
12410.000000	106.205
12500.000000	106.190
12650.000000	105.922
12800.000000	105.154
13150.000000	102.263
13200.000000	101.779
13400.000000	99.674
13600.000000	97.640
13800.000000	96.341
14000.000000	95.217
14300.000000	96.441
14500.000000	99.008
14750.000000	100.321
15000.000000	99.027
15250.000000	98.235
15500.000000	97.864
15750.000000	95.854
16000.000000	93.897
16250.000000	93.954
16500.000000	95.815
16750.000000	97.861
17000.000000	98.614
17250.000000	98.987
17500.000000	99.996
17750.000000	101.023
18000.000000	98.899
18250.000000	95.145
18500.000000	91.304
18750.000000	91.693
19000.000000	95.089
19250.000000	98.139
19500.000000	101.429
19750.000000	102.890
20000.000000	102.433
