* Measurement data measured by REW V5.31.1
* Source: EXCL: Micr√≥fono (Realtek(R) Audio), MICROPHONE (Volumen general), L, volume: 0,900. Timing signal peak level -13,9 dBFS, measurement signal peak level -9,7 dBFS
* Format: 512k Log Swept Sine, 1 sweep at -12,0 dBFS using an acoustic timing reference
* Dated: 12/09/2024 12:42:26 AM
* REW Settings:
*  C-weighting compensation: Off
*  Target level: 75.0 dB
* Note: Delay -0,0682 ms (-23 mm, -0,92 in) using estimated IR delay relative to Acoustic reference played from HEADPHONE R with no timing offset Clock adjustment: 19,7 ppm
* Measurement: Zero gordo mic 2
* Smoothing: None
* Frequency Step: 1/48 octave
* Start Frequency: 20.000 Hz
*
* Freq(Hz)	SPL(dB)	Phase(degrees)
20.000000	84.884	84.9957
20.299999	85.159	84.2599
20.600000	85.413	83.0187
20.900000	85.603	81.4129
21.200001	85.706	79.7050
21.400000	85.726	78.6743
21.799999	85.680	77.1129
22.000000	85.636	76.6699
22.400000	85.563	76.4817
22.700001	85.565	76.7542
23.000000	85.631	77.0750
23.299999	85.747	77.1909
23.600000	85.882	76.9950
24.000000	86.045	76.2723
24.299999	86.132	75.5414
24.700001	86.202	74.5520
25.000000	86.236	73.8951
25.400000	86.277	73.1284
25.799999	86.322	72.3986
26.200001	86.364	71.6876
26.500000	86.395	71.2172
26.900000	86.450	70.7113
27.200001	86.515	70.3582
27.600000	86.635	69.7332
28.000000	86.757	68.7665
28.500000	86.835	67.3006
29.000000	86.829	66.3232
29.500000	86.864	66.2032
30.000000	87.058	66.0703
30.400000	87.265	65.1542
30.700001	87.374	63.9424
31.100000	87.390	62.1354
31.500000	87.266	60.8477
32.000000	87.070	60.7521
32.500000	87.052	61.7901
33.000000	87.232	62.3440
33.500000	87.431	61.8241
34.000000	87.534	60.9532
34.500000	87.599	60.3752
35.000000	87.699	59.8289
35.500000	87.790	58.8481
36.000000	87.785	57.7452
36.500000	87.715	57.2760
37.000000	87.728	57.4873
37.500000	87.885	57.3606
38.200001	88.079	55.3190
38.700001	88.002	53.4559
39.500000	87.711	52.8550
40.000000	87.712	53.5368
40.599998	87.896	53.4958
41.200001	88.006	52.3970
41.799999	87.986	51.7680
42.500000	88.055	52.3156
43.099998	88.303	52.4645
43.700001	88.544	51.3992
44.400002	88.592	49.5309
45.000000	88.450	48.8036
45.500000	88.348	49.1408
46.200001	88.374	49.8256
46.799999	88.449	49.4995
47.500000	88.438	48.5566
48.200001	88.388	47.6870
48.700001	88.360	47.0189
49.400002	88.339	46.2740
50.000000	88.427	45.7370
50.799999	88.591	44.1747
51.500000	88.625	43.4925
52.200001	88.847	43.8059
53.000000	89.053	42.4195
53.799999	88.801	43.8930
54.500000	89.186	47.0304
55.200001	89.436	44.2943
56.000000	88.299	44.8427
57.000000	89.022	51.8422
58.000000	87.180	33.0470
59.000000	83.123	87.8078
60.000000	90.826	73.0995
60.799999	90.579	45.3942
61.500000	88.111	37.7986
62.200001	87.912	45.6874
63.000000	88.981	40.1596
64.000000	88.376	36.9371
65.000000	89.158	39.1365
66.000000	89.244	36.5895
67.000000	89.329	38.5026
68.000000	89.341	37.8089
69.000000	89.187	38.3531
70.000000	89.119	37.8542
71.000000	89.075	37.3816
72.000000	89.125	36.0953
73.000000	89.128	35.3369
74.000000	89.237	35.2699
75.000000	89.359	35.1129
76.199997	89.396	35.4032
77.500000	89.468	35.4963
78.800003	89.340	35.1377
80.000000	89.299	35.0693
81.199997	89.277	34.7335
82.500000	89.406	34.2078
83.800003	89.378	33.6107
85.000000	89.515	33.8116
86.199997	89.447	33.1830
87.500000	89.513	33.9740
88.500000	89.561	33.0980
90.000000	89.464	32.4964
91.199997	89.470	32.5514
92.500000	89.521	31.9724
93.800003	89.520	32.1600
95.000000	89.629	31.9495
96.199997	89.666	31.4346
97.500000	89.613	31.1779
98.800003	89.690	31.4400
100.000000	89.664	30.8741
101.500000	89.698	31.4200
103.000000	89.747	30.8860
104.400002	89.706	30.5530
106.000000	89.723	30.4270
107.500000	89.725	30.5204
109.000000	89.795	30.0808
110.599998	89.782	30.1471
112.000000	89.795	29.8701
113.800003	89.735	29.6017
115.000000	89.647	29.9993
117.199997	89.731	29.1404
118.000000	89.926	30.0774
120.599998	89.332	28.1512
122.000000	89.879	28.7746
124.099998	89.882	29.4551
125.000000	89.868	29.3549
126.500000	89.965	29.1124
128.000000	89.863	28.8565
131.500000	89.901	28.5734
132.000000	89.896	28.5692
134.000000	89.901	29.0297
136.000000	89.926	28.6421
138.000000	89.951	28.3089
140.000000	90.006	28.7241
143.000000	90.002	26.9592
145.000000	89.995	28.4471
147.500000	90.284	27.9697
150.000000	89.994	28.3559
152.500000	90.148	28.1464
155.000000	90.019	28.7776
157.500000	90.014	28.1070
160.000000	90.078	28.5181
162.500000	90.048	28.5661
165.000000	90.027	28.3049
167.500000	90.123	27.5728
170.000000	90.235	28.3403
172.500000	90.538	28.6873
175.000000	90.185	28.1766
177.500000	90.113	27.2566
180.000000	90.213	29.6571
182.500000	90.180	28.7967
185.000000	90.263	28.1208
187.500000	90.212	29.2896
190.000000	90.092	27.9146
192.500000	90.277	27.9989
195.000000	90.277	28.4531
197.500000	90.289	28.5967
200.000000	90.298	28.5085
203.000000	90.325	28.6348
206.000000	90.344	29.3270
209.000000	90.288	28.4692
212.000000	90.360	28.7708
214.000000	90.470	28.1044
218.000000	90.348	28.8783
220.000000	90.344	29.3227
224.000000	90.410	29.6215
227.000000	90.477	29.2534
230.000000	90.466	28.9581
233.000000	90.410	30.7464
236.000000	90.562	27.9062
240.000000	90.316	28.6912
243.000000	90.513	30.2827
247.000000	90.488	30.2358
250.000000	90.555	29.6456
254.000000	90.462	30.6902
258.000000	90.600	29.3242
262.000000	90.387	29.8053
265.000000	90.587	30.3047
269.000000	90.633	31.3792
272.000000	90.584	31.2530
276.000000	90.571	30.8392
280.000000	90.643	30.9055
285.000000	90.687	30.0931
290.000000	90.685	31.9948
295.000000	90.607	32.3292
300.000000	90.707	32.3839
304.000000	90.793	32.9237
307.000000	90.702	33.1241
311.000000	90.766	33.2799
315.000000	90.822	33.8293
320.000000	90.859	33.3425
325.000000	90.870	33.8108
330.000000	90.907	34.5340
335.000000	90.835	34.3606
340.000000	90.976	34.9189
345.000000	91.000	35.3796
350.000000	90.978	35.7463
355.000000	91.216	35.6331
360.000000	91.058	35.3355
365.000000	91.101	36.2951
370.000000	91.163	36.2401
375.000000	91.198	36.6601
382.000000	91.227	36.9533
387.000000	91.245	37.2476
395.000000	91.316	37.4749
400.000000	91.334	38.1582
406.000000	91.311	37.9764
412.000000	91.409	38.6371
418.000000	91.484	38.2254
425.000000	91.537	39.0244
431.000000	91.502	39.5801
437.000000	91.523	39.7043
444.000000	91.602	39.9451
450.000000	91.650	39.9337
455.000000	91.662	40.5191
462.000000	91.738	41.0578
468.000000	91.762	41.3595
475.000000	91.710	42.0615
482.000000	91.806	41.8354
487.000000	91.883	41.8336
494.000000	91.899	42.3833
500.000000	92.014	42.5880
508.000000	91.982	42.8365
515.000000	92.034	43.6386
522.000000	92.112	43.5664
530.000000	92.220	44.0504
538.000000	92.221	44.1372
545.000000	92.265	45.0615
552.000000	92.280	45.2372
560.000000	92.331	45.6059
570.000000	92.393	46.2102
580.000000	92.518	46.1651
590.000000	92.486	47.1055
600.000000	92.536	47.3484
608.000000	92.712	47.1513
615.000000	92.739	48.0591
622.000000	92.673	48.2746
630.000000	92.765	48.4152
640.000000	92.828	48.8675
650.000000	92.844	49.4675
660.000000	93.051	49.9522
670.000000	93.013	50.9664
680.000000	93.108	50.3883
690.000000	93.168	50.7923
700.000000	93.178	51.7020
710.000000	93.234	51.5447
720.000000	93.304	52.0479
730.000000	93.302	52.5562
740.000000	93.426	53.1155
750.000000	93.473	53.4517
762.000000	93.558	54.0470
775.000000	93.626	54.4521
788.000000	93.646	55.0857
800.000000	93.740	55.7358
812.000000	93.814	56.0424
825.000000	93.815	56.7166
838.000000	93.962	57.6340
850.000000	94.011	58.3110
862.000000	94.061	58.8591
875.000000	94.122	59.7430
885.000000	94.166	60.2482
900.000000	94.294	61.3230
912.000000	94.325	61.7186
925.000000	94.400	62.2949
938.000000	94.521	63.2045
950.000000	94.622	64.2584
962.000000	94.702	64.8099
975.000000	94.815	65.8021
988.000000	94.914	67.1799
1000.000000	94.990	68.1068
1015.000000	95.243	68.8052
1030.000000	95.411	69.8495
1044.000000	95.604	70.4917
1060.000000	95.852	71.6732
1075.000000	96.114	72.8118
1090.000000	96.358	73.2559
1106.000000	96.705	73.4580
1120.000000	97.005	73.4474
1138.000000	97.283	73.4224
1150.000000	97.469	73.0945
1172.000000	97.796	72.4793
1180.000000	97.885	72.0340
1206.000000	98.170	71.3024
1220.000000	98.322	70.7892
1241.000000	98.494	70.3063
1250.000000	98.536	69.9250
1265.000000	98.633	69.4878
1280.000000	98.760	69.2794
1315.000000	98.972	68.5514
1320.000000	98.988	68.4330
1340.000000	99.069	68.1138
1360.000000	99.167	67.9490
1380.000000	99.266	67.9470
1400.000000	99.401	67.7057
1430.000000	99.493	67.3279
1450.000000	99.588	67.3684
1475.000000	99.710	67.1825
1500.000000	99.810	67.4123
1525.000000	99.923	67.2158
1550.000000	100.040	67.2435
1575.000000	100.160	67.3548
1600.000000	100.266	67.4299
1625.000000	100.390	67.5811
1650.000000	100.492	67.5242
1675.000000	100.608	67.6191
1700.000000	100.718	67.8047
1725.000000	100.857	67.8011
1750.000000	100.962	67.7577
1775.000000	101.110	68.0221
1800.000000	101.231	68.1972
1825.000000	101.344	68.1125
1850.000000	101.468	68.3397
1875.000000	101.617	68.4007
1900.000000	101.718	68.4964
1925.000000	101.860	68.7144
1950.000000	102.000	68.5924
1975.000000	102.158	68.6754
2000.000000	102.317	68.8055
2030.000000	102.474	68.8574
2060.000000	102.652	68.8892
2090.000000	102.829	68.8820
2120.000000	103.016	68.7987
2140.000000	103.142	68.8052
2180.000000	103.411	68.5710
2200.000000	103.541	68.5493
2240.000000	103.824	68.2010
2270.000000	104.035	68.0160
2300.000000	104.236	67.7318
2330.000000	104.453	67.2841
2360.000000	104.667	66.8019
2400.000000	104.946	66.0999
2430.000000	105.169	65.3956
2470.000000	105.457	64.4702
2500.000000	105.672	63.5796
2540.000000	105.966	62.3610
2580.000000	106.243	60.9396
2620.000000	106.506	59.4125
2650.000000	106.701	58.0789
2690.000000	106.939	56.1762
2720.000000	107.099	54.6398
2760.000000	107.294	52.4357
2800.000000	107.466	50.0961
2850.000000	107.619	46.9735
2900.000000	107.715	43.7189
2950.000000	107.754	40.4678
3000.000000	107.712	37.1634
3040.000000	107.648	34.6862
3070.000000	107.564	32.8393
3110.000000	107.447	30.5122
3150.000000	107.280	28.2670
3200.000000	107.053	25.7678
3250.000000	106.763	23.4779
3300.000000	106.466	21.5432
3350.000000	106.144	20.0296
3400.000000	105.817	18.7462
3450.000000	105.509	17.7045
3500.000000	105.200	16.8516
3550.000000	104.886	16.1641
3600.000000	104.571	15.7281
3650.000000	104.264	15.5069
3700.000000	103.969	15.3325
3750.000000	103.681	15.4137
3820.000000	103.307	15.8379
3870.000000	103.036	16.2513
3950.000000	102.709	17.3537
4000.000000	102.532	18.0591
4060.000000	102.383	19.1743
4120.000000	102.245	19.8673
4180.000000	102.153	20.4382
4250.000000	102.008	21.0319
4310.000000	101.905	21.5228
4370.000000	101.797	22.2220
4440.000000	101.676	23.0262
4500.000000	101.620	23.7334
4550.000000	101.576	24.2846
4620.000000	101.533	25.0580
4680.000000	101.545	25.6688
4750.000000	101.572	26.3253
4820.000000	101.636	26.8699
4870.000000	101.708	26.9712
4940.000000	101.807	27.1555
5000.000000	101.928	26.9239
5080.000000	102.074	26.1561
5150.000000	102.195	25.0687
5220.000000	102.235	23.9172
5300.000000	102.246	23.0635
5380.000000	102.434	22.4390
5450.000000	102.733	21.2505
5520.000000	103.051	18.6433
5600.000000	103.377	14.2102
5700.000000	103.525	6.7601
5800.000000	103.309	-2.0029
5900.000000	102.615	-10.5901
6000.000000	101.572	-17.9176
6080.000000	100.530	-22.4960
6150.000000	99.587	-25.4556
6220.000000	98.551	-27.6914
6300.000000	97.428	-29.3290
6400.000000	96.084	-29.6681
6500.000000	94.783	-29.4421
6600.000000	93.533	-28.7179
6700.000000	92.355	-26.7715
6800.000000	91.254	-24.1960
6900.000000	90.216	-21.4280
7000.000000	89.282	-18.5714
7100.000000	88.276	-15.5015
7200.000000	87.287	-12.0472
7300.000000	86.459	-7.6865
7400.000000	85.674	-4.2964
7500.000000	84.735	-0.1837
7620.000000	84.298	6.0041
7750.000000	83.109	11.2948
7880.000000	82.199	15.6537
8000.000000	81.704	21.7955
8120.000000	81.237	25.8850
8250.000000	80.529	33.3389
8380.000000	79.718	35.9371
8500.000000	79.590	43.6494
8620.000000	78.645	48.2599
8750.000000	78.316	54.2240
8850.000000	78.065	58.5431
9000.000000	77.369	66.9412
9120.000000	76.654	70.2649
9250.000000	76.560	74.8554
9380.000000	76.164	81.4625
9500.000000	75.802	88.9808
9620.000000	75.508	93.5281
9750.000000	75.576	98.6037
9880.000000	74.538	105.0961
10000.000000	75.361	109.3506
10150.000000	74.973	117.0024
10300.000000	74.569	123.6251
10440.000000	74.388	130.1923
10600.000000	74.521	133.8646
10750.000000	74.365	141.7261
10900.000000	74.288	147.1942
11060.000000	74.670	151.8912
11200.000000	75.239	154.4404
11380.000000	74.420	164.3730
11500.000000	74.985	165.2172
11720.000000	75.040	175.5499
11800.000000	75.511	174.2491
12060.000000	75.767	-174.8008
12200.000000	76.108	-167.2297
12410.000000	77.125	-168.0916
12500.000000	77.569	-164.6423
12650.000000	78.170	-161.1870
12800.000000	79.034	-163.1532
13150.000000	81.667	-163.0995
13200.000000	81.898	-166.4539
13400.000000	82.987	179.9683
13600.000000	82.751	163.9342
13800.000000	81.186	148.5093
14000.000000	79.022	146.1499
14300.000000	75.956	139.9166
14500.000000	74.726	144.1936
14750.000000	72.775	150.1510
15000.000000	70.670	151.7144
15250.000000	69.312	154.0176
15500.000000	68.530	163.1472
15750.000000	67.687	170.2893
16000.000000	66.774	179.9471
16250.000000	66.021	-175.4225
16500.000000	65.593	-157.0488
16750.000000	63.711	-162.9651
17000.000000	63.400	-149.8169
17250.000000	64.800	-141.8208
17500.000000	62.742	-143.6305
17750.000000	63.221	-142.9474
18000.000000	65.045	-143.1217
18250.000000	64.421	-154.0090
18500.000000	65.216	-169.1142
18750.000000	58.396	-162.9028
19000.000000	60.921	-114.8576
19250.000000	65.890	-132.2451
19500.000000	65.110	-142.5658
19750.000000	67.576	-165.0103
