* Measurement data measured by REW V5.31.1
* Source: EXCL: Micr√≥fono (Realtek(R) Audio), MICROPHONE (Volumen general), L, volume: 0,900. Timing signal peak level -10,5 dBFS, measurement signal peak level -7,7 dBFS
* Format: 512k Log Swept Sine, 1 sweep at -12,0 dBFS using an acoustic timing reference
* Dated: 12/09/2024 12:37:12 AM
* REW Settings:
*  C-weighting compensation: Off
*  Target level: 75.0 dB
* Note: Delay -0,1042 ms (-36 mm, -1,41 in) using estimated IR delay relative to Acoustic reference played from HEADPHONE R with no timing offset Clock adjustment: 19,7 ppm
* Measurement: Zero flaco mic 1
* Smoothing: None
* Frequency Step: 1/48 octave
* Start Frequency: 20.000 Hz
*
* Freq(Hz)	SPL(dB)	Phase(degrees)
20.000000	83.392	108.9490
20.299999	83.510	108.0426
20.600000	83.632	107.2164
20.900000	83.763	106.4161
21.200001	83.901	105.5729
21.400000	83.991	104.9647
21.799999	84.156	103.6629
22.000000	84.227	103.0002
22.400000	84.345	101.7518
22.700001	84.422	100.9487
23.000000	84.505	100.2673
23.299999	84.605	99.6318
23.600000	84.721	98.9494
24.000000	84.886	97.8517
24.299999	84.997	96.8838
24.700001	85.111	95.5281
25.000000	85.172	94.5966
25.400000	85.243	93.5882
25.799999	85.333	92.8048
26.200001	85.457	92.0500
26.500000	85.562	91.3959
26.900000	85.695	90.3920
27.200001	85.779	89.6143
27.600000	85.872	88.6721
28.000000	85.960	87.9032
28.500000	86.089	87.0634
29.000000	86.227	86.1318
29.500000	86.337	85.1093
30.000000	86.409	84.2344
30.400000	86.463	83.7394
30.700001	86.516	83.4461
31.100000	86.607	83.0151
31.500000	86.709	82.4143
32.000000	86.817	81.4018
32.500000	86.882	80.3088
33.000000	86.922	79.3835
33.500000	86.979	78.6305
34.000000	87.067	77.8406
34.500000	87.165	76.8820
35.000000	87.249	75.8587
35.500000	87.325	74.9484
36.000000	87.414	74.1617
36.500000	87.515	73.3837
37.000000	87.609	72.5886
37.500000	87.684	71.8837
38.200001	87.781	71.1344
38.700001	87.851	70.6505
39.500000	87.935	69.8273
40.000000	87.968	69.3383
40.599998	88.003	68.7472
41.200001	88.041	68.0296
41.799999	88.074	67.1034
42.500000	88.086	65.8175
43.099998	88.075	64.8446
43.700001	88.098	64.1855
44.400002	88.208	63.4578
45.000000	88.320	62.6826
45.500000	88.401	62.1853
46.200001	88.534	61.8247
46.799999	88.657	61.5201
47.500000	88.750	61.2143
48.200001	88.804	61.0228
48.700001	88.803	60.7804
49.400002	88.725	60.6114
50.000000	88.690	60.6011
50.799999	88.651	59.4259
51.500000	88.481	58.5499
52.200001	88.579	58.3542
53.000000	88.843	54.9302
53.799999	88.569	52.9975
54.500000	88.948	55.2272
55.200001	89.651	52.2395
56.000000	89.120	50.2738
57.000000	90.039	59.1782
58.000000	89.614	49.6881
59.000000	88.585	85.9173
60.000000	94.349	75.0100
60.799999	93.789	49.8273
61.500000	90.354	42.9814
62.200001	89.210	58.9169
63.000000	90.293	56.0322
64.000000	88.814	50.6615
65.000000	89.255	53.0349
66.000000	89.209	46.6903
67.000000	89.307	48.0249
68.000000	89.675	45.8836
69.000000	89.659	46.6371
70.000000	89.817	47.0540
71.000000	89.759	47.4191
72.000000	89.726	47.3509
73.000000	89.652	46.8689
74.000000	89.633	45.9817
75.000000	89.649	45.1823
76.199997	89.754	44.3264
77.500000	89.865	43.9263
78.800003	89.937	43.7763
80.000000	89.924	43.7247
81.199997	89.912	43.5981
82.500000	89.858	42.9963
83.800003	89.892	42.5705
85.000000	89.940	41.8371
86.199997	89.997	41.4332
87.500000	90.011	41.0379
88.500000	90.007	41.2875
90.000000	90.096	41.1984
91.199997	90.118	40.6469
92.500000	90.084	40.1504
93.800003	90.135	40.0331
95.000000	90.142	39.4426
96.199997	90.143	39.5090
97.500000	90.198	39.2631
98.800003	90.204	38.7290
100.000000	90.176	38.7066
101.500000	90.253	38.2618
103.000000	90.222	38.1114
104.400002	90.268	37.8579
106.000000	90.268	37.8849
107.500000	90.307	37.4705
109.000000	90.328	37.4135
110.599998	90.319	37.0376
112.000000	90.368	37.0077
113.800003	90.375	36.7575
115.000000	90.380	36.4133
117.199997	90.406	36.1367
118.000000	90.401	36.3019
120.599998	90.431	35.1255
122.000000	90.451	35.9592
124.099998	90.447	35.6789
125.000000	90.468	35.6834
126.500000	90.491	35.2879
128.000000	90.483	35.3267
131.500000	90.550	34.9703
132.000000	90.562	34.9477
134.000000	90.544	34.8502
136.000000	90.534	34.6578
138.000000	90.534	34.3656
140.000000	90.611	34.2892
143.000000	90.657	34.1793
145.000000	90.597	34.6096
147.500000	90.595	34.3102
150.000000	90.634	33.6322
152.500000	90.710	33.9580
155.000000	90.743	33.8925
157.500000	90.744	33.6507
160.000000	90.703	33.5132
162.500000	90.754	33.3904
165.000000	90.786	33.2141
167.500000	90.742	33.2436
170.000000	90.772	33.4557
172.500000	90.697	33.1464
175.000000	90.809	33.2551
177.500000	90.801	33.0476
180.000000	90.739	33.0991
182.500000	90.855	32.7719
185.000000	90.887	32.9629
187.500000	90.859	33.4505
190.000000	90.935	33.1670
192.500000	90.862	33.2232
195.000000	90.931	33.0116
197.500000	90.951	33.2583
200.000000	90.978	33.3154
203.000000	90.959	33.3531
206.000000	90.987	33.2454
209.000000	90.977	33.1816
212.000000	91.008	33.4202
214.000000	91.053	33.6341
218.000000	91.083	33.7045
220.000000	91.040	33.7109
224.000000	91.070	33.6956
227.000000	91.082	33.6421
230.000000	91.093	33.8732
233.000000	91.074	33.9775
236.000000	91.180	34.1115
240.000000	91.163	33.9448
243.000000	91.167	34.0422
247.000000	91.160	34.2409
250.000000	91.197	34.1734
254.000000	91.197	34.2881
258.000000	91.178	34.8110
262.000000	91.234	34.7803
265.000000	91.214	34.6722
269.000000	91.254	34.9536
272.000000	91.231	34.8304
276.000000	91.269	35.1795
280.000000	91.231	35.3872
285.000000	91.297	35.5750
290.000000	91.315	35.9760
295.000000	91.325	36.4488
300.000000	91.136	37.0667
304.000000	91.446	36.7630
307.000000	91.412	37.1310
311.000000	91.437	37.2231
315.000000	91.480	37.4185
320.000000	91.503	37.6716
325.000000	91.531	37.8874
330.000000	91.567	38.0024
335.000000	91.587	38.4412
340.000000	91.614	38.5094
345.000000	91.619	38.7621
350.000000	91.639	38.9795
355.000000	91.643	39.3675
360.000000	91.694	39.5325
365.000000	91.724	39.9368
370.000000	91.748	40.1779
375.000000	91.762	40.3863
382.000000	91.829	40.9281
387.000000	91.838	41.2081
395.000000	91.889	41.5893
400.000000	91.919	41.7156
406.000000	91.963	42.1725
412.000000	91.995	42.2361
418.000000	92.018	42.7186
425.000000	92.071	42.8677
431.000000	92.082	43.1687
437.000000	92.105	43.6396
444.000000	92.167	44.0314
450.000000	92.189	44.4802
455.000000	92.223	44.4096
462.000000	92.271	44.8272
468.000000	92.267	45.2367
475.000000	92.338	45.3545
482.000000	92.385	45.8451
487.000000	92.383	46.1977
494.000000	92.420	46.6142
500.000000	92.444	46.6580
508.000000	92.496	47.2976
515.000000	92.521	47.5802
522.000000	92.559	48.1087
530.000000	92.630	48.2951
538.000000	92.640	48.9622
545.000000	92.684	49.2988
552.000000	92.728	49.5692
560.000000	92.771	50.0111
570.000000	92.810	50.5459
580.000000	92.879	50.9235
590.000000	92.934	51.7008
600.000000	93.016	52.2747
608.000000	93.062	52.7435
615.000000	93.067	53.0721
622.000000	93.137	53.1819
630.000000	93.161	53.5084
640.000000	93.247	53.8900
650.000000	93.295	54.5638
660.000000	93.405	54.8958
670.000000	93.419	55.5875
680.000000	93.438	55.9965
690.000000	93.515	56.3850
700.000000	93.533	56.8815
710.000000	93.609	57.3497
720.000000	93.656	57.7286
730.000000	93.702	58.2049
740.000000	93.765	58.7295
750.000000	93.782	59.1836
762.000000	93.846	59.6924
775.000000	93.900	60.3361
788.000000	93.971	61.0763
800.000000	94.012	61.6895
812.000000	94.070	62.2607
825.000000	94.088	63.1514
838.000000	94.166	63.4905
850.000000	94.205	64.6205
862.000000	94.213	65.3012
875.000000	94.298	66.0804
885.000000	94.310	66.6600
900.000000	94.370	67.9544
912.000000	94.432	68.3978
925.000000	94.485	69.2209
938.000000	94.566	70.2668
950.000000	94.638	71.2695
962.000000	94.688	72.2761
975.000000	94.790	73.4320
988.000000	94.872	74.4854
1000.000000	95.001	75.5097
1015.000000	95.146	76.6345
1030.000000	95.295	78.0415
1044.000000	95.462	79.2649
1060.000000	95.689	80.5240
1075.000000	95.957	81.6317
1090.000000	96.216	82.4760
1106.000000	96.497	83.0685
1120.000000	96.760	83.3176
1138.000000	97.054	83.2997
1150.000000	97.235	83.2400
1172.000000	97.533	82.9212
1180.000000	97.610	82.9220
1206.000000	97.861	82.5626
1220.000000	97.996	82.1852
1241.000000	98.141	82.0076
1250.000000	98.194	81.9716
1265.000000	98.284	81.6437
1280.000000	98.394	81.6436
1315.000000	98.560	81.6346
1320.000000	98.570	81.6196
1340.000000	98.662	81.7072
1360.000000	98.756	81.7659
1380.000000	98.844	81.9696
1400.000000	98.916	82.1541
1430.000000	99.016	82.3978
1450.000000	99.098	82.7167
1475.000000	99.210	83.1445
1500.000000	99.317	83.3818
1525.000000	99.417	83.9526
1550.000000	99.519	84.5474
1575.000000	99.603	84.9472
1600.000000	99.715	85.4560
1625.000000	99.836	85.9937
1650.000000	99.927	86.4211
1675.000000	100.048	86.9595
1700.000000	100.160	87.4724
1725.000000	100.272	88.0587
1750.000000	100.396	88.5466
1775.000000	100.511	89.0628
1800.000000	100.636	89.6405
1825.000000	100.756	90.1555
1850.000000	100.893	90.6384
1875.000000	101.032	91.2393
1900.000000	101.145	91.7490
1925.000000	101.283	92.2447
1950.000000	101.404	92.8143
1975.000000	101.565	93.2409
2000.000000	101.719	93.6710
2030.000000	101.890	94.2364
2060.000000	102.083	94.8032
2090.000000	102.260	95.2911
2120.000000	102.453	95.8278
2140.000000	102.557	95.9696
2180.000000	102.847	96.5301
2200.000000	102.980	96.7421
2240.000000	103.251	97.1213
2270.000000	103.460	97.2923
2300.000000	103.677	97.5122
2330.000000	103.896	97.6514
2360.000000	104.127	97.7419
2400.000000	104.422	97.5736
2430.000000	104.644	97.5232
2470.000000	104.953	97.1703
2500.000000	105.171	96.8057
2540.000000	105.468	96.2110
2580.000000	105.759	95.3726
2620.000000	106.029	94.4216
2650.000000	106.231	93.4845
2690.000000	106.478	92.1862
2720.000000	106.652	91.0480
2760.000000	106.866	89.5173
2800.000000	107.045	87.8220
2850.000000	107.216	85.4487
2900.000000	107.331	82.9880
2950.000000	107.379	80.5123
3000.000000	107.365	78.0891
3040.000000	107.319	76.1210
3070.000000	107.261	74.7009
3110.000000	107.152	73.0169
3150.000000	107.008	71.4755
3200.000000	106.808	69.7286
3250.000000	106.555	68.2243
3300.000000	106.304	67.0346
3350.000000	106.019	66.0684
3400.000000	105.735	65.5116
3450.000000	105.445	65.0527
3500.000000	105.159	64.9121
3550.000000	104.867	64.8611
3600.000000	104.588	65.1171
3650.000000	104.323	65.5320
3700.000000	104.073	66.1182
3750.000000	103.842	66.9076
3820.000000	103.498	68.1443
3870.000000	103.295	69.2893
3950.000000	103.018	71.4138
4000.000000	102.896	72.6492
4060.000000	102.783	74.2763
4120.000000	102.709	75.5566
4180.000000	102.639	76.8397
4250.000000	102.545	78.0885
4310.000000	102.439	79.3979
4370.000000	102.379	80.5949
4440.000000	102.313	82.2283
4500.000000	102.285	83.5388
4550.000000	102.278	84.6127
4620.000000	102.302	86.1655
4680.000000	102.310	87.3726
4750.000000	102.375	88.6265
4820.000000	102.484	89.6991
4870.000000	102.573	90.3631
4940.000000	102.698	90.9244
5000.000000	102.841	91.3090
5080.000000	103.009	91.3943
5150.000000	103.102	91.0406
5220.000000	103.157	90.6496
5300.000000	103.193	90.8728
5380.000000	103.378	91.4169
5450.000000	103.667	91.0617
5520.000000	104.021	89.6263
5600.000000	104.384	86.6403
5700.000000	104.684	81.1397
5800.000000	104.681	74.0439
5900.000000	104.266	66.3009
6000.000000	103.465	59.0563
6080.000000	102.593	54.3530
6150.000000	101.743	51.2434
6220.000000	100.831	48.6692
6300.000000	99.744	46.9889
6400.000000	98.403	46.0942
6500.000000	97.077	46.3827
6600.000000	95.821	47.7633
6700.000000	94.664	49.8580
6800.000000	93.569	52.2703
6900.000000	92.489	55.0385
7000.000000	91.457	58.1985
7100.000000	90.523	61.6189
7200.000000	89.577	65.4221
7300.000000	88.714	69.0575
7400.000000	87.823	72.6429
7500.000000	86.948	77.8092
7620.000000	86.309	82.2812
7750.000000	85.202	86.9481
7880.000000	84.047	92.2385
8000.000000	83.196	98.0312
8120.000000	82.591	104.1331
8250.000000	81.702	110.0895
8380.000000	80.707	115.9612
8500.000000	79.806	120.5109
8620.000000	79.129	127.3680
8750.000000	78.283	133.0210
8850.000000	78.061	138.4738
9000.000000	77.133	146.2162
9120.000000	76.269	152.8272
9250.000000	75.595	155.6392
9380.000000	75.162	164.8181
9500.000000	74.602	173.1872
9620.000000	73.378	177.2472
9750.000000	73.175	-174.0012
9880.000000	72.414	-169.3628
10000.000000	71.595	-159.2814
10150.000000	71.311	-153.0735
10300.000000	69.802	-144.5225
10440.000000	69.292	-136.6566
10600.000000	68.695	-126.8998
10750.000000	66.996	-108.7870
10900.000000	67.059	-97.9691
11060.000000	66.136	-85.3604
11200.000000	65.714	-72.0679
11380.000000	65.712	-45.3750
11500.000000	65.601	-30.1909
11720.000000	68.329	-4.6931
11800.000000	69.463	1.6260
12060.000000	72.493	13.2550
12200.000000	73.781	17.3882
12410.000000	75.826	20.2160
12500.000000	76.697	20.8430
12650.000000	78.001	23.6514
12800.000000	78.989	23.0969
13150.000000	82.276	19.5494
13200.000000	82.688	18.0920
13400.000000	84.327	5.5666
13600.000000	84.471	-13.8390
13800.000000	82.971	-30.3987
14000.000000	80.752	-37.5743
14300.000000	77.420	-40.8543
14500.000000	75.547	-39.9068
14750.000000	73.755	-32.7072
15000.000000	72.116	-25.7438
15250.000000	70.114	-19.3353
15500.000000	68.137	-12.9843
15750.000000	66.908	2.2385
16000.000000	66.356	2.5985
16250.000000	64.930	9.0645
16500.000000	64.828	29.6581
16750.000000	62.930	22.1885
17000.000000	64.111	44.6210
17250.000000	61.959	52.8414
17500.000000	62.256	45.2207
17750.000000	62.655	46.0963
18000.000000	61.512	52.7084
18250.000000	61.084	50.2490
18500.000000	61.755	46.3560
18750.000000	53.947	28.6852
19000.000000	55.922	83.8613
19250.000000	58.526	86.8783
19500.000000	61.240	91.4877
19750.000000	61.633	72.3397
