* Measurement data measured by REW V5.31.1
* Source: EXCL: Micr√≥fono (Realtek(R) Audio), MICROPHONE (Volumen general), L, volume: 0,900. Timing signal peak level -12,0 dBFS, measurement signal peak level -9,1 dBFS
* Format: 512k Log Swept Sine, 1 sweep at -12,0 dBFS using an acoustic timing reference
* Dated: 12/09/2024 12:20:27 AM
* REW Settings:
*  C-weighting compensation: Off
*  Target level: 75.0 dB
* Note: Delay -0,0695 ms (-24 mm, -0,94 in) using estimated IR delay relative to Acoustic reference played from HEADPHONE R with no timing offset Clock adjustment: 19,6 ppm
* Measurement: Zero d6 mic 2
* Smoothing: None
* Frequency Step: 1/48 octave
* Start Frequency: 20.000 Hz
*
* Freq(Hz)	SPL(dB)	Phase(degrees)
20.000000	84.597	96.9794
20.299999	84.679	96.3538
20.600000	84.777	95.8206
20.900000	84.892	95.3007
21.200001	85.020	94.7293
21.400000	85.108	94.3017
21.799999	85.286	93.3229
22.000000	85.372	92.7693
22.400000	85.530	91.5424
22.700001	85.630	90.5459
23.000000	85.709	89.5362
23.299999	85.769	88.5807
23.600000	85.818	87.7304
24.000000	85.882	86.7899
24.299999	85.945	86.1821
24.700001	86.053	85.3704
25.000000	86.144	84.6769
25.400000	86.257	83.6242
25.799999	86.346	82.5552
26.200001	86.416	81.6482
26.500000	86.474	81.1118
26.900000	86.575	80.5043
27.200001	86.671	80.0126
27.600000	86.808	79.1929
28.000000	86.926	78.2104
28.500000	87.026	77.0139
29.000000	87.105	76.0986
29.500000	87.208	75.3494
30.000000	87.328	74.4495
30.400000	87.406	73.5760
30.700001	87.443	72.9142
31.100000	87.473	72.1589
31.500000	87.503	71.5874
32.000000	87.569	70.9753
32.500000	87.659	70.2205
33.000000	87.734	69.2959
33.500000	87.782	68.4191
34.000000	87.828	67.7451
34.500000	87.901	67.1704
35.000000	87.998	66.5070
35.500000	88.090	65.7126
36.000000	88.164	64.9080
36.500000	88.228	64.1929
37.000000	88.294	63.5390
37.500000	88.359	62.8605
38.200001	88.422	61.8896
38.700001	88.443	61.3329
39.500000	88.497	60.7347
40.000000	88.556	60.2918
40.599998	88.615	59.5492
41.200001	88.637	58.8495
41.799999	88.668	58.4019
42.500000	88.768	57.8031
43.099998	88.853	56.8543
43.700001	88.870	55.8292
44.400002	88.844	55.1486
45.000000	88.860	54.9640
45.500000	88.909	54.7893
46.200001	88.989	54.3444
46.799999	89.046	53.8593
47.500000	89.094	53.1951
48.200001	89.101	52.5091
48.700001	89.091	52.1983
49.400002	89.126	51.9693
50.000000	89.206	51.4378
50.799999	89.244	50.2338
51.500000	89.232	49.7103
52.200001	89.316	49.3187
53.000000	89.365	48.2610
53.799999	89.335	48.3773
54.500000	89.515	48.6171
55.200001	89.604	47.3633
56.000000	89.415	47.4282
57.000000	89.649	47.8876
58.000000	89.047	45.3130
59.000000	88.821	54.5627
60.000000	90.390	51.9388
60.799999	90.144	44.3876
61.500000	89.483	44.0399
62.200001	89.564	45.6056
63.000000	89.765	43.5389
64.000000	89.596	42.4135
65.000000	89.734	42.1221
66.000000	89.758	41.5820
67.000000	89.872	41.4608
68.000000	89.859	41.0488
69.000000	89.909	41.3292
70.000000	89.951	40.6458
71.000000	89.919	40.3404
72.000000	89.964	39.7645
73.000000	89.932	39.0109
74.000000	89.931	38.8736
75.000000	89.989	38.5167
76.199997	90.012	38.1649
77.500000	90.067	37.9520
78.800003	90.075	37.4888
80.000000	90.066	37.4700
81.199997	90.111	37.1425
82.500000	90.106	36.7878
83.800003	90.151	36.4801
85.000000	90.173	35.8869
86.199997	90.147	35.6427
87.500000	90.208	35.4947
88.500000	90.233	35.0810
90.000000	90.236	34.6411
91.199997	90.226	34.6396
92.500000	90.273	34.5359
93.800003	90.289	34.2299
95.000000	90.291	33.8417
96.199997	90.272	33.6310
97.500000	90.291	33.3943
98.800003	90.327	33.2408
100.000000	90.366	32.7652
101.500000	90.359	32.6115
103.000000	90.349	32.5593
104.400002	90.425	32.5014
106.000000	90.373	31.9515
107.500000	90.395	31.9940
109.000000	90.436	31.6862
110.599998	90.453	31.4988
112.000000	90.471	31.3053
113.800003	90.448	31.2944
115.000000	90.505	31.2943
117.199997	90.507	31.0432
118.000000	90.542	30.3952
120.599998	90.534	30.3574
122.000000	90.481	30.4745
124.099998	90.507	29.9622
125.000000	90.513	30.2468
126.500000	90.556	30.2340
128.000000	90.598	29.7341
131.500000	90.615	29.3960
132.000000	90.608	29.3793
134.000000	90.606	29.3811
136.000000	90.617	29.4522
138.000000	90.623	29.4482
140.000000	90.622	29.1471
143.000000	90.654	28.7838
145.000000	90.669	28.8368
147.500000	90.682	28.7860
150.000000	90.707	28.7775
152.500000	90.709	28.5983
155.000000	90.674	28.4756
157.500000	90.706	28.5138
160.000000	90.742	28.5278
162.500000	90.735	28.4147
165.000000	90.711	28.3626
167.500000	90.771	28.3143
170.000000	90.812	28.3526
172.500000	90.733	28.6358
175.000000	90.755	28.4106
177.500000	90.813	28.2290
180.000000	90.804	28.1562
182.500000	90.856	28.4852
185.000000	90.816	28.0746
187.500000	90.855	28.3429
190.000000	90.855	28.1745
192.500000	90.896	28.1167
195.000000	90.874	28.5364
197.500000	90.911	28.2241
200.000000	90.880	28.3399
203.000000	90.922	28.2650
206.000000	90.926	28.3724
209.000000	90.961	28.2626
212.000000	90.939	28.7107
214.000000	91.022	28.0639
218.000000	90.997	28.5757
220.000000	90.963	28.3410
224.000000	91.016	28.6417
227.000000	91.023	28.7530
230.000000	91.044	28.4499
233.000000	91.058	28.7347
236.000000	90.981	29.2693
240.000000	91.058	29.1595
243.000000	91.086	28.9818
247.000000	91.076	29.1998
250.000000	91.072	29.2083
254.000000	91.088	29.5043
258.000000	91.144	29.3966
262.000000	91.135	29.7586
265.000000	91.176	29.8534
269.000000	91.155	29.6868
272.000000	91.111	29.8269
276.000000	91.153	30.1780
280.000000	91.127	30.5425
285.000000	91.154	30.7332
290.000000	91.216	31.3185
295.000000	91.262	31.0632
300.000000	91.325	31.6993
304.000000	91.294	31.7697
307.000000	91.270	32.3062
311.000000	91.368	31.8063
315.000000	91.368	32.1252
320.000000	91.376	32.4379
325.000000	91.419	32.6680
330.000000	91.456	32.6288
335.000000	91.477	32.8885
340.000000	91.482	33.0117
345.000000	91.548	33.4262
350.000000	91.541	33.6298
355.000000	91.580	33.8069
360.000000	91.571	33.9268
365.000000	91.622	34.3971
370.000000	91.637	34.6671
375.000000	91.678	34.7981
382.000000	91.690	35.0952
387.000000	91.735	35.2459
395.000000	91.757	35.4647
400.000000	91.796	35.9646
406.000000	91.803	36.4112
412.000000	91.863	36.4507
418.000000	91.868	36.9663
425.000000	91.907	36.9318
431.000000	91.898	37.4113
437.000000	91.997	37.5818
444.000000	92.002	37.7482
450.000000	92.022	38.1397
455.000000	92.058	38.3961
462.000000	92.089	38.8305
468.000000	92.093	38.9038
475.000000	92.131	39.2525
482.000000	92.182	39.7316
487.000000	92.180	39.8416
494.000000	92.283	40.3207
500.000000	92.299	40.6345
508.000000	92.289	41.0675
515.000000	92.374	41.4138
522.000000	92.409	41.6300
530.000000	92.451	41.9399
538.000000	92.481	42.3306
545.000000	92.546	42.7005
552.000000	92.564	42.8550
560.000000	92.626	43.4254
570.000000	92.692	43.8989
580.000000	92.747	44.1293
590.000000	92.784	44.5844
600.000000	92.863	45.2481
608.000000	92.916	45.4384
615.000000	92.934	45.7154
622.000000	92.987	45.9533
630.000000	93.046	46.2715
640.000000	93.063	46.6660
650.000000	93.105	47.3119
660.000000	93.185	47.5923
670.000000	93.221	47.9998
680.000000	93.299	48.2442
690.000000	93.315	48.6309
700.000000	93.404	49.0344
710.000000	93.424	49.5173
720.000000	93.455	49.9712
730.000000	93.549	50.3140
740.000000	93.581	50.6277
750.000000	93.641	51.1253
762.000000	93.661	51.6337
775.000000	93.723	52.1840
788.000000	93.788	52.6913
800.000000	93.837	53.2576
812.000000	93.887	53.8745
825.000000	93.967	54.4474
838.000000	94.022	55.0392
850.000000	94.047	55.6322
862.000000	94.088	56.3453
875.000000	94.176	56.9458
885.000000	94.211	57.5325
900.000000	94.319	58.5490
912.000000	94.350	59.1951
925.000000	94.399	59.9251
938.000000	94.498	60.9661
950.000000	94.554	61.7051
962.000000	94.641	62.5404
975.000000	94.719	63.4645
988.000000	94.858	64.5569
1000.000000	95.000	65.4722
1015.000000	95.132	66.4713
1030.000000	95.314	67.4562
1044.000000	95.493	68.4954
1060.000000	95.737	69.6275
1075.000000	95.991	70.3475
1090.000000	96.240	70.9201
1106.000000	96.537	71.4101
1120.000000	96.813	71.3012
1138.000000	97.093	71.2232
1150.000000	97.276	71.0082
1172.000000	97.554	70.4114
1180.000000	97.647	70.2063
1206.000000	97.914	69.5798
1220.000000	98.018	69.1503
1241.000000	98.201	68.5035
1250.000000	98.251	68.4328
1265.000000	98.323	68.0796
1280.000000	98.415	67.8562
1315.000000	98.604	67.2365
1320.000000	98.631	67.2279
1340.000000	98.718	67.0464
1360.000000	98.832	66.8885
1380.000000	98.906	66.7867
1400.000000	98.989	66.7001
1430.000000	99.116	66.7163
1450.000000	99.216	66.6698
1475.000000	99.303	66.6703
1500.000000	99.409	66.6840
1525.000000	99.498	66.6510
1550.000000	99.600	66.9445
1575.000000	99.703	66.9317
1600.000000	99.819	66.9956
1625.000000	99.908	67.2115
1650.000000	100.034	67.2339
1675.000000	100.107	67.5229
1700.000000	100.230	67.7163
1725.000000	100.322	67.8873
1750.000000	100.419	68.0114
1775.000000	100.550	68.1879
1800.000000	100.664	68.3846
1825.000000	100.753	68.5758
1850.000000	100.864	68.7752
1875.000000	100.968	69.0051
1900.000000	101.103	69.0990
1925.000000	101.211	69.3960
1950.000000	101.331	69.5420
1975.000000	101.463	69.6728
2000.000000	101.568	69.8663
2030.000000	101.728	70.0889
2060.000000	101.889	70.3249
2090.000000	102.049	70.5700
2120.000000	102.208	70.6424
2140.000000	102.325	70.7279
2180.000000	102.552	70.9467
2200.000000	102.673	70.9055
2240.000000	102.920	70.9748
2270.000000	103.093	70.9696
2300.000000	103.284	70.9101
2330.000000	103.475	70.8485
2360.000000	103.672	70.7188
2400.000000	103.941	70.4002
2430.000000	104.149	70.2282
2470.000000	104.419	69.7921
2500.000000	104.631	69.3112
2540.000000	104.916	68.6804
2580.000000	105.211	67.8020
2620.000000	105.491	66.8377
2650.000000	105.704	66.0589
2690.000000	105.973	64.7206
2720.000000	106.180	63.5933
2760.000000	106.431	61.9809
2800.000000	106.676	60.1453
2850.000000	106.945	57.6071
2900.000000	107.168	54.7950
2950.000000	107.327	51.7128
3000.000000	107.431	48.5057
3040.000000	107.469	45.8380
3070.000000	107.462	43.8394
3110.000000	107.417	41.2635
3150.000000	107.327	38.6906
3200.000000	107.157	35.6764
3250.000000	106.923	32.8903
3300.000000	106.647	30.3923
3350.000000	106.335	28.2011
3400.000000	105.997	26.3690
3450.000000	105.632	24.8535
3500.000000	105.264	23.6707
3550.000000	104.896	22.7457
3600.000000	104.513	22.1544
3650.000000	104.144	21.8452
3700.000000	103.802	21.7493
3750.000000	103.458	21.8916
3820.000000	102.983	22.5327
3870.000000	102.672	23.1931
3950.000000	102.236	24.6663
4000.000000	102.017	25.7797
4060.000000	101.829	27.2235
4120.000000	101.678	28.3642
4180.000000	101.537	29.3572
4250.000000	101.360	30.3560
4310.000000	101.225	31.2758
4370.000000	101.075	32.3141
4440.000000	100.921	33.5819
4500.000000	100.800	34.9809
4550.000000	100.736	35.8986
4620.000000	100.675	37.3502
4680.000000	100.652	38.7530
4750.000000	100.669	40.1573
4820.000000	100.711	41.5491
4870.000000	100.767	42.4587
4940.000000	100.876	43.4956
5000.000000	100.998	44.2278
5080.000000	101.189	44.8122
5150.000000	101.355	44.9050
5220.000000	101.496	44.7177
5300.000000	101.588	44.7608
5380.000000	101.802	45.5774
5450.000000	102.177	45.9651
5520.000000	102.639	45.2014
5600.000000	103.221	43.1018
5700.000000	103.928	37.8477
5800.000000	104.370	29.9131
5900.000000	104.401	19.8396
6000.000000	103.842	9.4102
6080.000000	103.008	2.1631
6150.000000	102.105	-2.8519
6220.000000	101.101	-6.7881
6300.000000	99.916	-9.6732
6400.000000	98.431	-11.6473
6500.000000	97.026	-12.0833
6600.000000	95.677	-11.2008
6700.000000	94.444	-9.8823
6800.000000	93.287	-7.3651
6900.000000	92.271	-4.4372
7000.000000	91.293	-1.5991
7100.000000	90.309	1.4840
7200.000000	89.533	5.0315
7300.000000	88.718	8.3844
7400.000000	87.869	12.2246
7500.000000	87.175	17.2253
7620.000000	86.611	21.9649
7750.000000	85.807	25.5762
7880.000000	84.978	31.0628
8000.000000	84.188	36.2841
8120.000000	83.745	40.5326
8250.000000	83.394	45.9434
8380.000000	82.673	50.9208
8500.000000	81.938	55.2665
8620.000000	81.365	60.9691
8750.000000	80.878	65.4317
8850.000000	80.751	70.0082
9000.000000	80.024	75.8879
9120.000000	79.714	80.4910
9250.000000	79.315	86.2101
9380.000000	79.030	91.6691
9500.000000	78.652	96.4827
9620.000000	78.332	102.7114
9750.000000	78.009	105.5114
9880.000000	77.939	111.1868
10000.000000	77.928	116.7361
10150.000000	77.119	123.1743
10300.000000	77.142	128.4146
10440.000000	76.673	133.8481
10600.000000	77.074	139.2813
10750.000000	76.783	146.1786
10900.000000	76.719	149.1041
11060.000000	76.705	157.0916
11200.000000	76.624	161.6953
11380.000000	76.510	166.4118
11500.000000	76.632	172.8203
11720.000000	76.792	177.4488
11800.000000	77.407	-178.2913
12060.000000	77.339	-167.9280
12200.000000	77.768	-163.3427
12410.000000	78.546	-158.4242
12500.000000	78.745	-156.9332
12650.000000	79.548	-152.2407
12800.000000	80.110	-148.8303
13150.000000	82.680	-148.3411
13200.000000	82.904	-149.3683
13400.000000	84.705	-155.1071
13600.000000	86.214	-171.1729
13800.000000	85.852	167.5453
14000.000000	83.767	151.1691
14300.000000	80.113	141.6477
14500.000000	77.721	142.3320
14750.000000	75.302	143.8142
15000.000000	73.170	149.4955
15250.000000	71.508	151.8987
15500.000000	69.848	160.0766
15750.000000	68.201	167.5685
16000.000000	67.537	171.7742
16250.000000	65.733	-179.1523
16500.000000	65.396	-168.3610
16750.000000	63.426	-167.3342
17000.000000	61.554	-150.5422
17250.000000	62.706	-144.7641
17500.000000	62.560	-144.0720
17750.000000	60.136	-147.8816
18000.000000	63.116	-135.2584
18250.000000	60.421	-122.9904
18500.000000	64.218	-138.7326
18750.000000	56.603	-158.2055
19000.000000	58.755	-104.6178
19250.000000	63.263	-108.5218
19500.000000	62.308	-109.0970
19750.000000	65.904	-115.7253
