* Measurement data measured by REW V5.31.1
* Source: EXCL: Micr√≥fono (Realtek(R) Audio), MICROPHONE (Volumen general), L, volume: 0,900. Timing signal peak level -6,4 dBFS, measurement signal peak level -4,3 dBFS
* Format: 512k Log Swept Sine, 1 sweep at -12,0 dBFS using an acoustic timing reference
* Dated: 12/09/2024 12:18:18 AM
* REW Settings:
*  C-weighting compensation: Off
*  Target level: 75.0 dB
* Note: Delay -0,0368 ms (-13 mm, -0,5 in) using estimated IR delay relative to Acoustic reference played from HEADPHONE R with no timing offset Clock adjustment: 19,5 ppm
* Measurement: Zero d6 mic 1
* Smoothing: None
* Frequency Step: 1/48 octave
* Start Frequency: 20.000 Hz
*
* Freq(Hz)	SPL(dB)	Phase(degrees)
20.000000	84.652	82.6618
20.299999	84.726	81.3110
20.600000	84.759	80.0875
20.900000	84.764	79.1282
21.200001	84.767	78.4990
21.400000	84.784	78.2245
21.799999	84.864	77.8444
22.000000	84.926	77.6404
22.400000	85.077	77.0362
22.700001	85.188	76.4027
23.000000	85.280	75.6987
23.299999	85.353	75.0356
23.600000	85.418	74.4722
24.000000	85.512	73.8725
24.299999	85.599	73.4455
24.700001	85.730	72.7581
25.000000	85.823	72.1043
25.400000	85.921	71.1021
25.799999	85.978	70.1236
26.200001	86.009	69.3308
26.500000	86.032	68.8781
26.900000	86.079	68.3870
27.200001	86.129	68.0118
27.600000	86.205	67.4098
28.000000	86.272	66.6856
28.500000	86.329	65.7547
29.000000	86.370	64.9861
29.500000	86.427	64.3830
30.000000	86.511	63.7498
30.400000	86.584	63.1165
30.700001	86.631	62.5812
31.100000	86.675	61.8836
31.500000	86.705	61.3071
32.000000	86.751	60.8052
32.500000	86.831	60.3921
33.000000	86.934	59.8319
33.500000	87.027	59.0642
34.000000	87.087	58.2307
34.500000	87.119	57.5128
35.000000	87.142	56.9752
35.500000	87.176	56.5563
36.000000	87.226	56.1440
36.500000	87.285	55.6606
37.000000	87.341	55.0970
37.500000	87.388	54.4993
38.200001	87.445	53.6937
38.700001	87.486	53.1506
39.500000	87.556	52.2912
40.000000	87.597	51.7445
40.599998	87.630	51.1200
41.200001	87.647	50.6870
41.799999	87.680	50.5275
42.500000	87.781	50.3195
43.099998	87.871	49.7268
43.700001	87.896	48.9844
44.400002	87.878	48.4991
45.000000	87.899	48.2905
45.500000	87.937	47.9161
46.200001	87.952	47.1254
46.799999	87.926	46.6255
47.500000	87.930	46.3957
48.200001	88.007	46.0638
48.700001	88.073	45.5597
49.400002	88.117	44.7206
50.000000	88.128	44.2712
50.799999	88.175	43.9235
51.500000	88.203	43.5441
52.200001	88.214	43.5088
53.000000	88.307	43.3206
53.799999	88.292	42.3466
54.500000	88.205	42.3761
55.200001	88.315	42.2123
56.000000	88.289	40.0552
57.000000	88.093	40.7917
58.000000	88.766	37.4269
59.000000	87.800	30.0384
60.000000	87.077	40.1176
60.799999	88.347	41.7423
61.500000	88.649	37.6839
62.200001	88.451	37.0346
63.000000	88.621	38.0751
64.000000	88.723	36.9251
65.000000	88.665	37.3849
66.000000	88.692	37.3307
67.000000	88.706	37.3575
68.000000	88.745	36.4312
69.000000	88.670	35.7644
70.000000	88.663	35.5721
71.000000	88.722	35.3889
72.000000	88.768	34.8940
73.000000	88.782	34.8669
74.000000	88.843	34.6067
75.000000	88.816	34.3735
76.199997	88.865	34.2971
77.500000	88.864	33.5874
78.800003	88.850	33.3289
80.000000	88.899	33.3929
81.199997	88.994	32.9222
82.500000	88.968	32.6070
83.800003	89.012	32.6090
85.000000	89.009	32.2045
86.199997	88.986	31.9826
87.500000	88.989	31.8053
88.500000	89.003	31.5484
90.000000	89.026	31.3465
91.199997	89.062	30.9527
92.500000	89.039	30.7987
93.800003	89.078	30.6910
95.000000	89.084	30.4163
96.199997	89.091	30.2182
97.500000	89.113	30.0920
98.800003	89.140	29.7944
100.000000	89.155	29.6495
101.500000	89.169	29.4695
103.000000	89.187	29.3698
104.400002	89.188	29.2556
106.000000	89.211	29.2980
107.500000	89.221	28.9195
109.000000	89.242	28.7440
110.599998	89.205	28.3065
112.000000	89.231	28.4874
113.800003	89.261	28.3911
115.000000	89.251	28.3374
117.199997	89.245	28.2048
118.000000	89.153	28.6128
120.599998	89.322	27.6998
122.000000	89.266	27.7092
124.099998	89.335	27.3171
125.000000	89.313	27.2915
126.500000	89.371	27.5877
128.000000	89.388	27.4569
131.500000	89.370	27.1432
132.000000	89.362	27.0516
134.000000	89.377	27.1621
136.000000	89.401	27.1498
138.000000	89.409	27.0461
140.000000	89.433	26.9468
143.000000	89.428	26.8618
145.000000	89.452	26.6465
147.500000	89.468	26.6908
150.000000	89.476	26.5731
152.500000	89.505	26.6285
155.000000	89.493	26.5145
157.500000	89.502	26.4795
160.000000	89.524	26.5919
162.500000	89.520	26.3159
165.000000	89.557	26.6679
167.500000	89.571	26.5978
170.000000	89.543	26.5767
172.500000	89.570	26.5636
175.000000	89.565	26.9362
177.500000	89.584	26.4340
180.000000	89.648	26.7902
182.500000	89.597	26.7092
185.000000	89.635	26.8496
187.500000	89.633	26.5881
190.000000	89.656	26.7855
192.500000	89.665	26.8093
195.000000	89.656	26.9492
197.500000	89.659	26.9374
200.000000	89.679	27.1092
203.000000	89.724	27.0992
206.000000	89.726	27.3278
209.000000	89.709	27.2055
212.000000	89.748	27.4476
214.000000	89.787	27.4442
218.000000	89.768	27.3024
220.000000	89.767	27.4890
224.000000	89.786	27.6965
227.000000	89.836	27.7292
230.000000	89.828	27.5745
233.000000	89.852	27.8248
236.000000	89.794	27.3875
240.000000	89.804	28.0875
243.000000	89.867	28.2415
247.000000	89.873	28.4356
250.000000	89.870	28.2729
254.000000	89.889	28.4846
258.000000	89.921	28.7111
262.000000	89.906	28.7557
265.000000	89.923	28.9387
269.000000	89.927	29.4566
272.000000	89.955	29.4131
276.000000	89.973	29.7623
280.000000	89.999	29.9896
285.000000	90.004	30.3480
290.000000	90.023	30.2820
295.000000	90.055	30.9125
300.000000	90.107	31.5670
304.000000	90.133	31.4456
307.000000	90.171	31.4985
311.000000	90.155	31.5567
315.000000	90.201	31.8076
320.000000	90.187	32.0655
325.000000	90.243	32.2255
330.000000	90.279	32.7038
335.000000	90.291	32.6407
340.000000	90.300	33.0323
345.000000	90.382	33.2754
350.000000	90.428	33.7395
355.000000	90.494	33.6323
360.000000	90.455	34.1387
365.000000	90.514	34.4478
370.000000	90.539	34.5914
375.000000	90.569	34.9458
382.000000	90.610	35.2474
387.000000	90.638	35.3233
395.000000	90.692	35.9491
400.000000	90.715	36.0329
406.000000	90.763	36.2908
412.000000	90.792	36.6613
418.000000	90.819	36.9648
425.000000	90.906	37.3328
431.000000	90.924	37.6244
437.000000	90.960	37.8507
444.000000	91.017	38.2307
450.000000	91.018	38.5036
455.000000	91.070	38.8044
462.000000	91.125	39.0678
468.000000	91.163	39.4533
475.000000	91.193	39.8294
482.000000	91.247	40.1141
487.000000	91.285	40.3399
494.000000	91.325	40.5374
500.000000	91.381	41.2488
508.000000	91.416	41.3742
515.000000	91.450	41.5694
522.000000	91.540	42.1292
530.000000	91.601	42.1778
538.000000	91.647	42.5117
545.000000	91.687	42.9755
552.000000	91.731	43.2661
560.000000	91.836	43.5680
570.000000	91.903	44.1466
580.000000	91.951	44.4149
590.000000	92.013	45.0002
600.000000	92.084	45.3055
608.000000	92.154	45.6610
615.000000	92.173	45.9431
622.000000	92.248	46.1293
630.000000	92.302	46.3855
640.000000	92.380	46.8506
650.000000	92.428	47.3145
660.000000	92.513	47.6319
670.000000	92.587	48.1082
680.000000	92.629	48.3848
690.000000	92.730	48.8503
700.000000	92.786	49.1498
710.000000	92.869	49.4937
720.000000	92.935	49.9540
730.000000	93.005	50.2660
740.000000	93.062	50.6562
750.000000	93.116	51.0272
762.000000	93.190	51.5868
775.000000	93.258	51.9930
788.000000	93.355	52.5095
800.000000	93.433	52.9780
812.000000	93.506	53.5059
825.000000	93.589	53.9512
838.000000	93.685	54.4742
850.000000	93.768	54.8996
862.000000	93.852	55.5593
875.000000	93.945	56.1785
885.000000	94.007	56.6258
900.000000	94.084	57.3194
912.000000	94.186	57.9886
925.000000	94.296	58.5948
938.000000	94.392	59.3494
950.000000	94.497	60.1663
962.000000	94.610	60.7940
975.000000	94.732	61.6428
988.000000	94.885	62.5778
1000.000000	94.997	63.1871
1015.000000	95.219	64.0639
1030.000000	95.409	64.9597
1044.000000	95.620	65.5809
1060.000000	95.903	66.3976
1075.000000	96.179	67.0733
1090.000000	96.472	67.2452
1106.000000	96.812	67.3974
1120.000000	97.077	67.1550
1138.000000	97.404	66.7145
1150.000000	97.605	66.1266
1172.000000	97.916	65.2010
1180.000000	98.012	64.8238
1206.000000	98.302	63.5929
1220.000000	98.449	62.9950
1241.000000	98.630	62.1099
1250.000000	98.702	61.7042
1265.000000	98.795	61.0452
1280.000000	98.911	60.5302
1315.000000	99.137	59.3496
1320.000000	99.157	59.2498
1340.000000	99.277	58.7118
1360.000000	99.395	58.2424
1380.000000	99.517	57.6793
1400.000000	99.616	57.1958
1430.000000	99.758	56.6551
1450.000000	99.860	56.3134
1475.000000	99.988	55.9520
1500.000000	100.120	55.5875
1525.000000	100.230	55.3946
1550.000000	100.333	55.0186
1575.000000	100.450	54.7292
1600.000000	100.565	54.5886
1625.000000	100.658	54.3090
1650.000000	100.767	54.2198
1675.000000	100.873	54.0707
1700.000000	100.996	53.9712
1725.000000	101.117	53.8251
1750.000000	101.227	53.6508
1775.000000	101.352	53.4847
1800.000000	101.464	53.3674
1825.000000	101.575	53.2931
1850.000000	101.698	53.1477
1875.000000	101.808	53.0905
1900.000000	101.932	52.9495
1925.000000	102.048	52.8869
1950.000000	102.185	52.7510
1975.000000	102.307	52.6787
2000.000000	102.434	52.5393
2030.000000	102.589	52.4176
2060.000000	102.754	52.2517
2090.000000	102.917	52.1679
2120.000000	103.095	51.9898
2140.000000	103.208	51.9308
2180.000000	103.447	51.6534
2200.000000	103.579	51.5241
2240.000000	103.820	51.1126
2270.000000	104.015	50.8878
2300.000000	104.216	50.5839
2330.000000	104.408	50.2183
2360.000000	104.617	49.7651
2400.000000	104.896	49.2064
2430.000000	105.116	48.6698
2470.000000	105.410	47.9293
2500.000000	105.626	47.2651
2540.000000	105.942	46.2176
2580.000000	106.244	45.0590
2620.000000	106.549	43.7392
2650.000000	106.778	42.6715
2690.000000	107.087	41.0342
2720.000000	107.312	39.7186
2760.000000	107.605	37.7139
2800.000000	107.877	35.4942
2850.000000	108.191	32.5125
2900.000000	108.470	29.1960
2950.000000	108.692	25.5896
3000.000000	108.855	21.7759
3040.000000	108.930	18.6261
3070.000000	108.960	16.1963
3110.000000	108.963	12.9932
3150.000000	108.905	9.8091
3200.000000	108.775	6.0153
3250.000000	108.577	2.3904
3300.000000	108.322	-0.9429
3350.000000	108.034	-3.8401
3400.000000	107.710	-6.4983
3450.000000	107.365	-8.8165
3500.000000	107.007	-10.7712
3550.000000	106.644	-12.4164
3600.000000	106.274	-13.7175
3650.000000	105.917	-14.7336
3700.000000	105.564	-15.5396
3750.000000	105.221	-16.0305
3820.000000	104.766	-16.3951
3870.000000	104.470	-16.4188
3950.000000	104.057	-15.9365
4000.000000	103.854	-15.4775
4060.000000	103.664	-14.8279
4120.000000	103.523	-14.4774
4180.000000	103.404	-14.3890
4250.000000	103.235	-14.3847
4310.000000	103.084	-14.2258
4370.000000	102.936	-13.9248
4440.000000	102.782	-13.4958
4500.000000	102.697	-12.9194
4550.000000	102.635	-12.5042
4620.000000	102.571	-11.8881
4680.000000	102.549	-11.2964
4750.000000	102.572	-10.7200
4820.000000	102.633	-10.2454
4870.000000	102.692	-9.9745
4940.000000	102.810	-9.7843
5000.000000	102.933	-9.6878
5080.000000	103.129	-10.0032
5150.000000	103.304	-10.5754
5220.000000	103.457	-11.3121
5300.000000	103.594	-11.8522
5380.000000	103.873	-11.9482
5450.000000	104.267	-12.4410
5520.000000	104.754	-13.8639
5600.000000	105.366	-16.8289
5700.000000	106.111	-22.6742
5800.000000	106.686	-31.2889
5900.000000	106.885	-42.1436
6000.000000	106.538	-53.9098
6080.000000	105.855	-62.7646
6150.000000	105.036	-69.4814
6220.000000	104.084	-74.8839
6300.000000	102.894	-79.6227
6400.000000	101.394	-83.4241
6500.000000	99.941	-85.3716
6600.000000	98.563	-85.6663
6700.000000	97.308	-85.3908
6800.000000	96.191	-84.5631
6900.000000	95.144	-83.3569
7000.000000	94.165	-82.0441
7100.000000	93.254	-80.4672
7200.000000	92.409	-78.5706
7300.000000	91.589	-76.7756
7400.000000	90.826	-74.5753
7500.000000	90.042	-71.5651
7620.000000	89.482	-68.0563
7750.000000	88.657	-66.1487
7880.000000	87.878	-62.8802
8000.000000	87.053	-59.3677
8120.000000	86.537	-56.3719
8250.000000	86.105	-53.1784
8380.000000	85.398	-50.1816
8500.000000	84.905	-47.2335
8620.000000	84.418	-44.1010
8750.000000	83.912	-40.8517
8850.000000	83.570	-38.4752
9000.000000	83.111	-34.8379
9120.000000	82.819	-31.8008
9250.000000	82.256	-29.0870
9380.000000	81.865	-26.4148
9500.000000	81.522	-23.4778
9620.000000	81.178	-19.9962
9750.000000	80.866	-16.8174
9880.000000	80.594	-13.1504
10000.000000	80.287	-10.8656
10150.000000	79.905	-6.2051
10300.000000	79.590	-3.4462
10440.000000	79.532	-0.5265
10600.000000	79.148	3.8073
10750.000000	79.135	8.3915
10900.000000	78.945	10.8004
11060.000000	78.934	15.0835
11200.000000	78.685	17.7956
11380.000000	78.570	20.9709
11500.000000	78.657	25.6946
11720.000000	78.628	29.1293
11800.000000	78.769	32.2604
12060.000000	78.943	35.9784
12200.000000	79.325	38.8013
12410.000000	79.854	42.6754
12500.000000	80.009	43.7538
12650.000000	80.641	45.2720
12800.000000	81.222	46.6199
13150.000000	83.283	45.2199
13200.000000	83.614	44.4072
13400.000000	85.317	37.0410
13600.000000	86.832	22.9733
13800.000000	87.018	0.4523
14000.000000	85.469	-20.5406
14300.000000	81.658	-36.2640
14500.000000	79.093	-41.2819
14750.000000	76.691	-41.8596
15000.000000	74.205	-38.1487
15250.000000	72.163	-35.9966
15500.000000	70.593	-33.8636
15750.000000	68.946	-28.2214
16000.000000	67.581	-24.0950
16250.000000	66.387	-22.9018
16500.000000	65.537	-16.5525
16750.000000	64.543	-9.2303
17000.000000	64.375	-1.4558
17250.000000	63.817	-0.9138
17500.000000	62.976	-1.0884
17750.000000	64.214	0.5956
18000.000000	63.490	4.6931
18250.000000	64.103	-0.8767
18500.000000	63.991	-11.6211
18750.000000	58.161	-37.2520
19000.000000	58.005	14.2484
19250.000000	62.210	14.2938
19500.000000	63.112	5.1222
19750.000000	64.434	-8.2517
