* Measurement data measured by REW V5.31.1
* Source: EXCL: Micr√≥fono (Realtek(R) Audio), MICROPHONE (Volumen general), L, volume: 0,900. Timing signal peak level -14,8 dBFS, measurement signal peak level -12,1 dBFS
* Format: 512k Log Swept Sine, 1 sweep at -12,0 dBFS using an acoustic timing reference
* Dated: 30/07/2024 12:52:12 AM
* REW Settings:
*  C-weighting compensation: Off
*  Target level: 75.0 dB
* Note: Delay -0,0222 ms (-7,6 mm, -0,3 in) using estimated IR delay relative to Acoustic reference played from SPEAKER L with no timing offset
* Measurement: L 172
* Smoothing: None
* Frequency Step: 1/48 octave
* Start Frequency: 20.000 Hz
*
* Freq(Hz)	SPL(dB)	Phase(degrees)
20.000000	106.410	-166.2854
20.299999	106.396	-167.0570
20.600000	106.383	-167.8154
20.900000	106.369	-168.5621
21.200001	106.353	-169.2962
21.400000	106.341	-169.7769
21.799999	106.316	-170.7139
22.000000	106.304	-171.1695
22.400000	106.278	-172.0575
22.700001	106.258	-172.7081
23.000000	106.239	-173.3501
23.299999	106.219	-173.9856
23.600000	106.198	-174.6138
24.000000	106.167	-175.4347
24.299999	106.143	-176.0344
24.700001	106.110	-176.8120
25.000000	106.086	-177.3825
25.400000	106.054	-178.1331
25.799999	106.020	-178.8756
26.200001	105.984	-179.6055
26.500000	105.956	179.8605
26.900000	105.916	179.1709
27.200001	105.886	178.6703
27.600000	105.847	178.0218
28.000000	105.807	177.3920
28.500000	105.758	176.6302
29.000000	105.712	175.8916
29.500000	105.668	175.1585
30.000000	105.623	174.4135
30.400000	105.584	173.8138
30.700001	105.552	173.3723
31.100000	105.507	172.8083
31.500000	105.461	172.2791
32.000000	105.406	171.6570
32.500000	105.356	171.0557
33.000000	105.308	170.4551
33.500000	105.259	169.8476
34.000000	105.208	169.2368
34.500000	105.153	168.6395
35.000000	105.095	168.0795
35.500000	105.038	167.5610
36.000000	104.985	167.0572
36.500000	104.933	166.5400
37.000000	104.878	166.0168
37.500000	104.819	165.5197
38.200001	104.740	164.8806
38.700001	104.687	164.4281
39.500000	104.600	163.6801
40.000000	104.543	163.2278
40.599998	104.476	162.7087
41.200001	104.409	162.1938
41.799999	104.340	161.6938
42.500000	104.261	161.1561
43.099998	104.198	160.6983
43.700001	104.134	160.2114
44.400002	104.050	159.6632
45.000000	103.978	159.2527
45.500000	103.923	158.9243
46.200001	103.847	158.4335
46.799999	103.775	158.0066
47.500000	103.688	157.5616
48.200001	103.604	157.1574
48.700001	103.546	156.8629
49.400002	103.462	156.4436
50.000000	103.387	156.1053
50.799999	103.287	155.6935
51.500000	103.202	155.3393
52.200001	103.114	154.9845
53.000000	103.012	154.6123
53.799999	102.913	154.2411
54.500000	102.820	153.8781
55.200001	102.717	153.5567
56.000000	102.603	153.2724
57.000000	102.462	152.8055
58.000000	102.278	152.4507
59.000000	102.114	152.3810
60.000000	101.952	152.1053
60.799999	101.771	151.9999
61.500000	101.608	152.2089
62.200001	101.462	152.4972
63.000000	101.266	152.8630
64.000000	100.991	154.0736
65.000000	100.787	155.9068
66.000000	100.624	158.7931
67.000000	100.855	162.4171
68.000000	101.277	163.6880
69.000000	101.649	164.5634
70.000000	102.220	163.9299
71.000000	102.538	160.9695
72.000000	102.565	158.5496
73.000000	102.541	156.6833
74.000000	102.446	155.0039
75.000000	102.286	153.7157
76.199997	102.066	153.0714
77.500000	101.968	152.9200
78.800003	101.925	152.0316
80.000000	101.806	151.3252
81.199997	101.748	150.7505
82.500000	101.595	149.9367
83.800003	101.497	149.8543
85.000000	101.396	149.2184
86.199997	101.268	149.0936
87.500000	101.163	148.6571
88.500000	101.050	148.5580
90.000000	100.950	148.4045
91.199997	100.847	148.1812
92.500000	100.735	148.1377
93.800003	100.638	148.1564
95.000000	100.563	148.1161
96.199997	100.473	148.0231
97.500000	100.395	148.0742
98.800003	100.337	147.9875
100.000000	100.287	147.8510
101.500000	100.199	147.7691
103.000000	100.148	147.6909
104.400002	100.077	147.5862
106.000000	99.983	147.3324
107.500000	99.905	147.1937
109.000000	99.807	147.0299
110.599998	99.724	146.8362
112.000000	99.638	146.8102
113.800003	99.526	146.8011
115.000000	99.457	146.8399
117.199997	99.325	146.8434
118.000000	99.272	146.8597
120.599998	99.105	146.9496
122.000000	99.039	147.1516
124.099998	98.923	147.3242
125.000000	98.880	147.4997
126.500000	98.813	147.6619
128.000000	98.719	147.8724
131.500000	98.652	149.0815
132.000000	98.662	149.1415
134.000000	98.664	149.1413
136.000000	98.685	148.8699
138.000000	98.627	148.6147
140.000000	98.549	148.3914
143.000000	98.445	148.1868
145.000000	98.370	148.0489
147.500000	98.279	148.1259
150.000000	98.159	148.0457
152.500000	98.053	148.1630
155.000000	97.974	148.2676
157.500000	97.881	148.3568
160.000000	97.787	148.3286
162.500000	97.709	148.5683
165.000000	97.610	148.6123
167.500000	97.522	148.8931
170.000000	97.415	149.0657
172.500000	97.340	149.1824
175.000000	97.239	149.3654
177.500000	97.160	149.5828
180.000000	97.070	149.6891
182.500000	96.979	149.8343
185.000000	96.916	150.0872
187.500000	96.832	150.3230
190.000000	96.763	150.5233
192.500000	96.685	150.7179
195.000000	96.611	150.8734
197.500000	96.524	151.0872
200.000000	96.461	151.3044
203.000000	96.386	151.4821
206.000000	96.338	151.7960
209.000000	96.263	152.0811
212.000000	96.199	152.2964
214.000000	96.162	152.4568
218.000000	96.085	152.7873
220.000000	96.044	153.0975
224.000000	95.973	153.3795
227.000000	95.900	153.6461
230.000000	95.859	154.0494
233.000000	95.819	154.2195
236.000000	95.759	154.4558
240.000000	95.702	154.9241
243.000000	95.633	155.1110
247.000000	95.601	155.4069
250.000000	95.514	155.7083
254.000000	95.440	155.9514
258.000000	95.411	156.4283
262.000000	95.332	156.8352
265.000000	95.270	157.0230
269.000000	95.228	157.4167
272.000000	95.150	157.7495
276.000000	95.142	158.0857
280.000000	95.069	158.4927
285.000000	95.004	158.8626
290.000000	94.941	159.3037
295.000000	94.873	159.8275
300.000000	94.815	160.3417
304.000000	94.777	160.6991
307.000000	94.752	161.0567
311.000000	94.682	161.3817
315.000000	94.626	161.6267
320.000000	94.595	162.0723
325.000000	94.532	162.6025
330.000000	94.496	163.0548
335.000000	94.434	163.3959
340.000000	94.408	163.9880
345.000000	94.358	164.5040
350.000000	94.315	164.7817
355.000000	94.258	165.2549
360.000000	94.237	165.7740
365.000000	94.186	166.1160
370.000000	94.151	166.5791
375.000000	94.085	166.8835
382.000000	94.057	167.5167
387.000000	94.032	167.9832
395.000000	93.994	168.6992
400.000000	93.937	169.2368
406.000000	93.913	169.7194
412.000000	93.841	170.2816
418.000000	93.844	170.8030
425.000000	93.823	171.2342
431.000000	93.791	171.8848
437.000000	93.777	172.2936
444.000000	93.708	172.8765
450.000000	93.683	173.4785
455.000000	93.689	173.8052
462.000000	93.666	174.4049
468.000000	93.639	174.9049
475.000000	93.606	175.5000
482.000000	93.586	175.9999
487.000000	93.553	176.4672
494.000000	93.543	177.0602
500.000000	93.509	177.5078
508.000000	93.504	178.1813
515.000000	93.505	178.7096
522.000000	93.479	179.1452
530.000000	93.493	179.8087
538.000000	93.461	-179.4845
545.000000	93.462	-178.9447
552.000000	93.441	-178.5182
560.000000	93.422	-177.6807
570.000000	93.412	-176.9870
580.000000	93.391	-176.2374
590.000000	93.428	-175.4658
600.000000	93.408	-174.7058
608.000000	93.416	-174.2591
615.000000	93.440	-173.5399
622.000000	93.399	-172.9172
630.000000	93.406	-172.4881
640.000000	93.440	-171.7233
650.000000	93.429	-170.6688
660.000000	93.444	-170.2152
670.000000	93.486	-169.3431
680.000000	93.496	-168.5433
690.000000	93.499	-167.7718
700.000000	93.544	-167.1330
710.000000	93.564	-166.3053
720.000000	93.572	-165.5608
730.000000	93.615	-164.8901
740.000000	93.668	-164.2321
750.000000	93.694	-163.6051
762.000000	93.701	-163.2513
775.000000	93.681	-161.9944
788.000000	93.729	-160.7724
800.000000	93.785	-159.7655
812.000000	93.842	-159.0227
825.000000	93.910	-157.7610
838.000000	94.003	-156.7192
850.000000	94.084	-156.0233
862.000000	94.155	-155.2880
875.000000	94.231	-154.6938
885.000000	94.306	-154.1357
900.000000	94.396	-153.2811
912.000000	94.454	-152.6075
925.000000	94.540	-152.0196
938.000000	94.636	-151.1684
950.000000	94.714	-150.5290
962.000000	94.821	-149.9749
975.000000	94.901	-149.3825
988.000000	94.989	-148.5653
1000.000000	95.086	-148.1720
1015.000000	95.188	-147.4801
1030.000000	95.273	-146.8388
1044.000000	95.425	-146.3535
1060.000000	95.531	-145.7592
1075.000000	95.637	-145.2867
1090.000000	95.777	-144.7955
1106.000000	95.878	-144.4104
1120.000000	95.992	-143.8974
1138.000000	96.129	-143.3991
1150.000000	96.206	-143.1105
1172.000000	96.373	-142.6418
1180.000000	96.433	-142.5047
1206.000000	96.636	-141.9750
1220.000000	96.734	-141.6812
1241.000000	96.871	-141.2866
1250.000000	96.944	-141.2684
1265.000000	97.057	-140.8317
1280.000000	97.182	-140.7650
1315.000000	97.433	-140.2631
1320.000000	97.481	-140.0590
1340.000000	97.609	-139.9561
1360.000000	97.763	-139.5970
1380.000000	97.914	-139.4274
1400.000000	98.064	-139.1948
1430.000000	98.282	-138.8379
1450.000000	98.445	-138.7071
1475.000000	98.623	-138.5886
1500.000000	98.818	-138.3026
1525.000000	98.989	-138.2828
1550.000000	99.179	-138.0125
1575.000000	99.370	-137.9233
1600.000000	99.560	-137.9681
1625.000000	99.751	-137.8611
1650.000000	99.955	-137.8058
1675.000000	100.178	-137.8004
1700.000000	100.367	-137.9876
1725.000000	100.569	-138.0685
1750.000000	100.805	-138.1941
1775.000000	100.987	-138.3698
1800.000000	101.196	-138.7230
1825.000000	101.413	-138.9979
1850.000000	101.617	-139.3412
1875.000000	101.820	-139.7946
1900.000000	102.029	-140.2680
1925.000000	102.242	-140.7868
1950.000000	102.456	-141.3422
1975.000000	102.669	-142.0253
2000.000000	102.863	-142.7486
2030.000000	103.104	-143.8488
2060.000000	103.325	-144.9170
2090.000000	103.546	-146.1091
2120.000000	103.748	-147.3857
2140.000000	103.879	-148.3265
2180.000000	104.127	-150.2443
2200.000000	104.240	-151.2141
2240.000000	104.431	-153.2522
2270.000000	104.548	-154.8783
2300.000000	104.650	-156.4715
2330.000000	104.732	-158.0687
2360.000000	104.807	-159.5673
2400.000000	104.887	-161.3786
2430.000000	104.959	-162.7396
2470.000000	105.076	-164.7379
2500.000000	105.133	-166.6084
2540.000000	105.147	-169.0432
2580.000000	105.108	-171.3318
2620.000000	105.026	-173.3572
2650.000000	104.918	-174.6448
2690.000000	104.825	-175.8325
2720.000000	104.781	-176.7352
2760.000000	104.734	-177.8942
2800.000000	104.701	-179.2709
2850.000000	104.617	178.8810
2900.000000	104.488	177.2666
2950.000000	104.345	175.8492
3000.000000	104.185	174.6407
3040.000000	104.058	173.8632
3070.000000	103.992	173.3509
3110.000000	103.890	172.7141
3150.000000	103.791	172.1469
3200.000000	103.653	171.4183
3250.000000	103.520	170.7887
3300.000000	103.381	170.1182
3350.000000	103.243	169.5501
3400.000000	103.117	169.0922
3450.000000	103.029	168.6549
3500.000000	102.937	168.1817
3550.000000	102.871	167.5557
3600.000000	102.810	166.8690
3650.000000	102.724	166.0744
3700.000000	102.645	165.2079
3750.000000	102.548	164.3712
3820.000000	102.401	163.2059
3870.000000	102.307	162.4534
3950.000000	102.147	160.9900
4000.000000	102.033	159.9843
4060.000000	101.933	158.7213
4120.000000	101.805	157.4791
4180.000000	101.658	156.1723
4250.000000	101.457	154.5955
4310.000000	101.255	153.3239
4370.000000	101.063	152.0052
4440.000000	100.764	150.6432
4500.000000	100.488	149.6157
4550.000000	100.248	148.7542
4620.000000	99.894	147.8519
4680.000000	99.530	147.0576
4750.000000	99.131	146.4766
4820.000000	98.714	146.2146
4870.000000	98.417	146.2214
4940.000000	97.984	146.1517
5000.000000	97.619	146.5646
5080.000000	97.111	147.3401
5150.000000	96.662	148.3986
5220.000000	96.245	149.6259
5300.000000	95.780	151.0014
5380.000000	95.331	153.0687
5450.000000	94.978	154.9927
5520.000000	94.593	157.0676
5600.000000	94.300	160.0391
5700.000000	93.936	164.0915
5800.000000	93.680	168.3638
5900.000000	93.490	172.5031
6000.000000	93.459	176.7916
6080.000000	93.537	179.9202
6150.000000	93.685	-177.0073
6220.000000	93.858	-174.4880
6300.000000	94.091	-172.5071
6400.000000	94.433	-169.9076
6500.000000	94.732	-167.8023
6600.000000	95.141	-166.1360
6700.000000	95.479	-164.4386
6800.000000	95.791	-163.0908
6900.000000	96.149	-162.0120
7000.000000	96.547	-160.3731
7100.000000	96.975	-159.1197
7200.000000	97.499	-157.8908
7300.000000	98.082	-156.9835
7400.000000	98.808	-156.5864
7500.000000	99.640	-157.0240
7620.000000	100.816	-159.0824
7750.000000	102.271	-164.4197
7880.000000	103.655	-175.1664
8000.000000	104.320	169.8408
8120.000000	103.793	153.2723
8250.000000	102.160	139.5940
8380.000000	100.160	132.0464
8500.000000	98.395	129.2210
8620.000000	96.808	128.8799
8750.000000	95.344	130.7378
8850.000000	94.391	132.7137
9000.000000	93.281	136.6800
9120.000000	92.543	139.8133
9250.000000	91.946	143.3456
9380.000000	91.406	146.1503
9500.000000	91.011	148.3866
9620.000000	90.557	150.5837
9750.000000	90.136	153.0330
9880.000000	89.721	155.7146
10000.000000	89.360	157.8145
10150.000000	89.047	161.2231
10300.000000	88.683	164.2612
10440.000000	88.490	166.4281
10600.000000	88.387	169.7206
10750.000000	88.350	172.1494
10900.000000	88.292	173.9938
11060.000000	88.215	175.0832
11200.000000	88.443	175.2083
11380.000000	88.312	175.2545
11500.000000	88.140	174.2977
11720.000000	87.744	172.9446
11800.000000	87.669	172.1549
12060.000000	86.790	170.5367
12200.000000	86.242	169.5728
12410.000000	85.275	170.6426
12500.000000	84.752	170.7889
12650.000000	84.106	173.4696
12800.000000	83.366	175.5623
13150.000000	81.898	-178.0327
13200.000000	81.718	-175.4960
13400.000000	81.039	-169.5981
13600.000000	80.680	-163.2323
13800.000000	80.136	-158.1205
14000.000000	80.057	-151.8732
14300.000000	79.908	-143.0239
14500.000000	80.180	-136.4034
14750.000000	80.732	-130.6488
15000.000000	81.763	-128.4649
15250.000000	81.713	-129.1640
15500.000000	82.884	-125.7868
15750.000000	84.303	-126.1197
16000.000000	85.520	-139.1725
16250.000000	85.234	-158.8347
16500.000000	83.373	-172.8787
16750.000000	80.935	-174.8506
17000.000000	78.988	-172.6871
17250.000000	77.467	-167.1476
17500.000000	76.135	-157.1965
17750.000000	74.657	-151.0656
18000.000000	74.174	-143.0728
18250.000000	73.720	-136.2724
18500.000000	73.341	-126.1473
18750.000000	73.424	-122.9136
19000.000000	73.897	-109.2651
19250.000000	74.256	-102.0956
19500.000000	75.108	-101.3961
19750.000000	75.234	-101.0097
20000.000000	75.635	-102.0111
