* Measurement data measured by REW V5.31.1
* Source: EXCL: Micr√≥fono (Realtek(R) Audio), MICROPHONE (Volumen general), L, volume: 0,900. Timing signal peak level -13,8 dBFS, measurement signal peak level -13,2 dBFS
* Format: 512k Log Swept Sine, 1 sweep at -12,0 dBFS using an acoustic timing reference
* Dated: 30/07/2024 12:49:40 AM
* REW Settings:
*  C-weighting compensation: Off
*  Target level: 75.0 dB
* Note: Delay -0,0204 ms (-7,0 mm, -0,28 in) using estimated IR delay relative to Acoustic reference played from SPEAKER R with no timing offset
* Measurement: R 169
* Smoothing: None
* Frequency Step: 1/48 octave
* Start Frequency: 20.000 Hz
*
* Freq(Hz)	SPL(dB)	Phase(degrees)
20.000000	105.694	-158.8264
20.299999	105.695	-159.6310
20.600000	105.695	-160.4225
20.900000	105.692	-161.1968
21.200001	105.688	-161.9499
21.400000	105.684	-162.4395
21.799999	105.677	-163.3945
22.000000	105.674	-163.8635
22.400000	105.667	-164.7921
22.700001	105.661	-165.4835
23.000000	105.652	-166.1677
23.299999	105.640	-166.8382
23.600000	105.627	-167.4881
24.000000	105.607	-168.3156
24.299999	105.593	-168.9108
24.700001	105.577	-169.6856
25.000000	105.565	-170.2652
25.400000	105.550	-171.0453
25.799999	105.531	-171.8271
26.200001	105.507	-172.5889
26.500000	105.487	-173.1347
26.900000	105.460	-173.8252
27.200001	105.442	-174.3226
27.600000	105.420	-174.9785
28.000000	105.401	-175.6437
28.500000	105.374	-176.4924
29.000000	105.340	-177.3337
29.500000	105.303	-178.1384
30.000000	105.265	-178.9011
30.400000	105.235	-179.4908
30.700001	105.214	-179.9270
31.100000	105.185	179.4958
31.500000	105.156	178.9249
32.000000	105.118	178.2266
32.500000	105.080	177.5505
33.000000	105.042	176.8922
33.500000	105.005	176.2401
34.000000	104.965	175.5906
34.500000	104.921	174.9583
35.000000	104.874	174.3627
35.500000	104.829	173.8027
36.000000	104.787	173.2522
36.500000	104.745	172.6909
37.000000	104.699	172.1315
37.500000	104.649	171.6032
38.200001	104.583	170.9226
38.700001	104.541	170.4384
39.500000	104.473	169.6120
40.000000	104.424	169.0934
40.599998	104.361	168.5168
41.200001	104.301	167.9891
41.799999	104.245	167.4746
42.500000	104.181	166.8640
43.099998	104.123	166.3512
43.700001	104.066	165.8668
44.400002	104.001	165.3181
45.000000	103.945	164.8432
45.500000	103.896	164.4548
46.200001	103.827	163.9403
46.799999	103.769	163.5095
47.500000	103.700	163.0002
48.200001	103.625	162.5253
48.700001	103.573	162.2170
49.400002	103.506	161.7730
50.000000	103.446	161.3630
50.799999	103.355	160.8684
51.500000	103.282	160.5098
52.200001	103.216	160.1291
53.000000	103.135	159.6561
53.799999	103.047	159.2143
54.500000	102.968	158.8489
55.200001	102.886	158.5218
56.000000	102.798	158.1850
57.000000	102.684	157.6843
58.000000	102.547	157.2659
59.000000	102.421	156.9720
60.000000	102.296	156.6054
60.799999	102.184	156.3235
61.500000	102.077	156.1161
62.200001	101.961	155.9721
63.000000	101.820	155.9304
64.000000	101.643	156.0911
65.000000	101.472	156.3992
66.000000	101.271	156.9581
67.000000	101.087	158.2217
68.000000	100.994	159.8538
69.000000	100.976	161.8707
70.000000	101.164	164.1069
71.000000	101.542	165.1647
72.000000	101.942	164.6535
73.000000	102.211	162.7635
74.000000	102.262	160.7331
75.000000	102.233	159.1512
76.199997	102.066	157.6588
77.500000	101.975	157.7316
78.800003	102.021	156.5975
80.000000	101.939	155.6789
81.199997	101.876	154.8521
82.500000	101.789	154.0836
83.800003	101.669	153.2788
85.000000	101.556	152.9038
86.199997	101.450	152.5174
87.500000	101.352	152.1306
88.500000	101.257	151.8380
90.000000	101.145	151.4693
91.199997	101.028	151.3093
92.500000	100.956	151.1244
93.800003	100.849	150.9266
95.000000	100.768	150.7566
96.199997	100.673	150.7062
97.500000	100.598	150.6030
98.800003	100.514	150.5380
100.000000	100.441	150.4216
101.500000	100.341	150.3695
103.000000	100.246	150.6292
104.400002	100.247	150.5012
106.000000	100.156	150.2515
107.500000	100.101	149.9706
109.000000	100.033	149.8001
110.599998	99.939	149.5144
112.000000	99.855	149.4090
113.800003	99.759	149.2986
115.000000	99.672	149.1749
117.199997	99.561	149.0756
118.000000	99.504	149.0416
120.599998	99.371	149.0321
122.000000	99.284	149.1010
124.099998	99.168	149.1709
125.000000	99.124	149.2756
126.500000	99.036	149.2673
128.000000	98.950	149.5425
131.500000	98.789	149.9920
132.000000	98.763	150.0586
134.000000	98.689	150.5129
136.000000	98.649	151.1330
138.000000	98.650	151.4017
140.000000	98.652	151.5881
143.000000	98.637	151.1770
145.000000	98.623	150.9281
147.500000	98.560	150.6383
150.000000	98.458	150.4966
152.500000	98.367	150.3125
155.000000	98.271	150.2983
157.500000	98.179	150.3379
160.000000	98.093	150.4132
162.500000	97.993	150.3976
165.000000	97.905	150.5723
167.500000	97.798	150.5644
170.000000	97.721	150.7549
172.500000	97.599	150.8408
175.000000	97.531	150.9333
177.500000	97.457	151.0317
180.000000	97.363	151.2026
182.500000	97.281	151.3189
185.000000	97.205	151.6158
187.500000	97.128	151.8126
190.000000	97.034	151.7708
192.500000	96.958	152.0452
195.000000	96.897	152.1873
197.500000	96.831	152.4202
200.000000	96.755	152.5963
203.000000	96.697	152.7945
206.000000	96.629	152.8890
209.000000	96.566	153.3228
212.000000	96.491	153.4573
214.000000	96.441	153.5194
218.000000	96.386	153.8835
220.000000	96.347	154.1029
224.000000	96.255	154.4229
227.000000	96.198	154.7335
230.000000	96.167	154.8957
233.000000	96.100	155.0049
236.000000	96.051	155.3540
240.000000	95.978	155.6252
243.000000	95.940	155.8630
247.000000	95.877	156.3131
250.000000	95.840	156.5651
254.000000	95.755	156.9475
258.000000	95.700	157.2944
262.000000	95.618	157.5432
265.000000	95.562	157.9696
269.000000	95.539	158.0956
272.000000	95.487	158.4143
276.000000	95.427	158.6396
280.000000	95.358	159.0815
285.000000	95.296	159.4895
290.000000	95.235	160.0291
295.000000	95.148	160.4605
300.000000	95.112	160.9168
304.000000	95.049	161.0433
307.000000	95.011	161.3089
311.000000	94.984	161.7610
315.000000	94.923	162.0695
320.000000	94.894	162.4564
325.000000	94.817	163.0381
330.000000	94.786	163.4114
335.000000	94.729	163.7368
340.000000	94.688	164.2829
345.000000	94.624	164.5163
350.000000	94.561	164.9446
355.000000	94.561	165.4429
360.000000	94.500	165.8089
365.000000	94.463	166.2715
370.000000	94.429	166.8850
375.000000	94.385	167.0327
382.000000	94.345	167.7239
387.000000	94.317	168.0773
395.000000	94.248	168.8329
400.000000	94.217	169.3073
406.000000	94.171	169.6245
412.000000	94.144	170.2055
418.000000	94.128	170.6792
425.000000	94.062	171.2996
431.000000	94.032	171.7098
437.000000	94.024	172.2046
444.000000	93.981	172.9683
450.000000	93.937	173.2990
455.000000	93.930	173.7422
462.000000	93.892	174.1710
468.000000	93.893	174.7393
475.000000	93.860	175.1516
482.000000	93.836	176.0120
487.000000	93.810	176.1787
494.000000	93.814	176.6577
500.000000	93.767	177.3000
508.000000	93.760	178.0081
515.000000	93.733	178.4767
522.000000	93.722	178.9573
530.000000	93.715	179.6210
538.000000	93.696	-179.6000
545.000000	93.668	-179.2160
552.000000	93.659	-178.6316
560.000000	93.653	-178.1117
570.000000	93.633	-177.4490
580.000000	93.654	-176.6201
590.000000	93.610	-175.7610
600.000000	93.609	-175.0422
608.000000	93.625	-174.2117
615.000000	93.602	-173.8583
622.000000	93.601	-173.3626
630.000000	93.623	-172.7167
640.000000	93.661	-172.1908
650.000000	93.646	-171.4131
660.000000	93.662	-170.6652
670.000000	93.656	-169.9461
680.000000	93.674	-169.0478
690.000000	93.712	-168.5119
700.000000	93.697	-167.4153
710.000000	93.706	-166.9643
720.000000	93.742	-166.0451
730.000000	93.775	-165.5304
740.000000	93.795	-164.5821
750.000000	93.829	-163.9479
762.000000	93.852	-163.0278
775.000000	93.918	-162.1584
788.000000	93.994	-161.3126
800.000000	94.013	-160.3835
812.000000	94.049	-159.5392
825.000000	94.112	-158.6697
838.000000	94.158	-157.7094
850.000000	94.228	-157.0889
862.000000	94.282	-156.2364
875.000000	94.368	-155.4784
885.000000	94.397	-155.0002
900.000000	94.486	-153.8798
912.000000	94.556	-152.9178
925.000000	94.697	-152.0878
938.000000	94.790	-151.7767
950.000000	94.801	-151.3643
962.000000	94.907	-150.3729
975.000000	95.014	-149.7126
988.000000	95.097	-149.1520
1000.000000	95.185	-148.6859
1015.000000	95.289	-148.1204
1030.000000	95.407	-147.3719
1044.000000	95.510	-146.8436
1060.000000	95.616	-146.3644
1075.000000	95.733	-145.7946
1090.000000	95.857	-145.2923
1106.000000	95.959	-144.9343
1120.000000	96.092	-144.3711
1138.000000	96.195	-143.9225
1150.000000	96.287	-143.6725
1172.000000	96.444	-143.2116
1180.000000	96.478	-142.9578
1206.000000	96.693	-142.4193
1220.000000	96.782	-142.0709
1241.000000	96.934	-141.7467
1250.000000	96.990	-141.5247
1265.000000	97.098	-141.3373
1280.000000	97.211	-141.0850
1315.000000	97.463	-140.5730
1320.000000	97.516	-140.5543
1340.000000	97.652	-140.2906
1360.000000	97.785	-139.9239
1380.000000	97.931	-139.6338
1400.000000	98.094	-139.4450
1430.000000	98.306	-139.0764
1450.000000	98.448	-138.9584
1475.000000	98.624	-138.6771
1500.000000	98.794	-138.5261
1525.000000	98.983	-138.2403
1550.000000	99.174	-138.1798
1575.000000	99.339	-137.9629
1600.000000	99.540	-137.8337
1625.000000	99.732	-137.6712
1650.000000	99.934	-137.7292
1675.000000	100.128	-137.6848
1700.000000	100.329	-137.7045
1725.000000	100.542	-137.7004
1750.000000	100.732	-138.0256
1775.000000	100.957	-138.0342
1800.000000	101.144	-138.2885
1825.000000	101.351	-138.5102
1850.000000	101.546	-138.8892
1875.000000	101.752	-139.2650
1900.000000	101.962	-139.5375
1925.000000	102.175	-139.9644
1950.000000	102.383	-140.6019
1975.000000	102.595	-141.2194
2000.000000	102.795	-141.9108
2030.000000	103.033	-142.8557
2060.000000	103.261	-143.8391
2090.000000	103.479	-144.9975
2120.000000	103.671	-146.1063
2140.000000	103.819	-146.9678
2180.000000	104.057	-148.7461
2200.000000	104.165	-149.6862
2240.000000	104.376	-151.6013
2270.000000	104.488	-153.0656
2300.000000	104.601	-154.4606
2330.000000	104.710	-155.7917
2360.000000	104.814	-157.1387
2400.000000	104.990	-158.8071
2430.000000	105.115	-160.5070
2470.000000	105.245	-162.9415
2500.000000	105.305	-164.8588
2540.000000	105.315	-167.4545
2580.000000	105.259	-169.7624
2620.000000	105.181	-171.7913
2650.000000	105.117	-173.2617
2690.000000	105.021	-174.8596
2720.000000	104.957	-176.0202
2760.000000	104.851	-177.5829
2800.000000	104.731	-179.0027
2850.000000	104.571	179.4625
2900.000000	104.391	178.1985
2950.000000	104.214	177.2782
3000.000000	104.060	176.6562
3040.000000	103.964	176.1741
3070.000000	103.922	175.8278
3110.000000	103.860	175.3092
3150.000000	103.804	174.6531
3200.000000	103.656	173.9322
3250.000000	103.525	173.1909
3300.000000	103.381	172.6443
3350.000000	103.234	172.2294
3400.000000	103.106	171.7977
3450.000000	102.978	171.4767
3500.000000	102.893	171.1826
3550.000000	102.794	170.8461
3600.000000	102.728	170.4905
3650.000000	102.648	170.1143
3700.000000	102.580	169.5637
3750.000000	102.518	169.0572
3820.000000	102.406	168.4583
3870.000000	102.323	167.9617
3950.000000	102.248	167.0648
4000.000000	102.205	166.5347
4060.000000	102.182	165.6457
4120.000000	102.152	164.5771
4180.000000	102.104	163.3892
4250.000000	102.033	161.8586
4310.000000	101.937	160.5107
4370.000000	101.791	159.2260
4440.000000	101.604	157.6293
4500.000000	101.424	156.3038
4550.000000	101.236	155.3207
4620.000000	100.970	153.8856
4680.000000	100.715	152.8658
4750.000000	100.386	151.8834
4820.000000	100.040	150.9208
4870.000000	99.798	150.6187
4940.000000	99.396	150.0771
5000.000000	99.051	150.0269
5080.000000	98.566	150.3308
5150.000000	98.138	151.1584
5220.000000	97.828	152.4767
5300.000000	97.602	153.7831
5380.000000	97.352	154.1633
5450.000000	97.060	154.4456
5520.000000	96.714	155.0443
5600.000000	96.341	156.0187
5700.000000	95.908	157.4886
5800.000000	95.438	159.6069
5900.000000	95.107	161.9273
6000.000000	94.722	164.5919
6080.000000	94.508	166.4006
6150.000000	94.274	168.5790
6220.000000	94.120	170.7006
6300.000000	93.924	173.2498
6400.000000	93.856	176.5370
6500.000000	93.735	179.9125
6600.000000	93.633	-176.4493
6700.000000	93.595	-172.3515
6800.000000	93.647	-167.7280
6900.000000	93.798	-163.1151
7000.000000	94.038	-157.3710
7100.000000	94.490	-150.9060
7200.000000	95.241	-144.2687
7300.000000	96.478	-138.0284
7400.000000	98.139	-134.4785
7500.000000	100.063	-135.1037
7620.000000	102.166	-141.3155
7750.000000	103.888	-152.1092
7880.000000	105.059	-165.6301
8000.000000	105.605	179.5610
8120.000000	105.303	163.8118
8250.000000	104.065	149.0649
8380.000000	102.334	139.2216
8500.000000	100.671	134.0250
8620.000000	99.091	131.6525
8750.000000	97.540	131.3384
8850.000000	96.513	131.8360
9000.000000	95.147	133.6855
9120.000000	94.171	135.8520
9250.000000	93.283	138.6741
9380.000000	92.478	141.9229
9500.000000	91.844	144.9860
9620.000000	91.312	147.9146
9750.000000	90.713	151.9532
9880.000000	90.310	155.3039
10000.000000	89.964	158.5731
10150.000000	89.633	162.6306
10300.000000	89.382	166.6153
10440.000000	89.280	169.9931
10600.000000	89.222	173.1960
10750.000000	89.226	176.3270
10900.000000	89.335	178.7766
11060.000000	89.404	-179.3586
11200.000000	89.587	-178.3604
11380.000000	89.727	-178.2565
11500.000000	89.884	-178.8156
11720.000000	89.870	179.0157
11800.000000	89.760	178.0450
12060.000000	89.211	174.7593
12200.000000	88.647	173.5508
12410.000000	87.842	172.5568
12500.000000	87.437	172.6209
12650.000000	86.728	173.0420
12800.000000	85.996	174.6497
13150.000000	84.571	-178.4123
13200.000000	84.332	-178.3242
13400.000000	83.645	-172.7079
13600.000000	83.056	-167.9752
13800.000000	82.804	-161.2075
14000.000000	82.531	-154.9068
14300.000000	82.571	-144.7199
14500.000000	82.839	-140.0871
14750.000000	83.611	-133.9354
15000.000000	84.624	-129.3578
15250.000000	86.148	-128.3109
15500.000000	88.302	-133.2930
15750.000000	90.018	-151.8679
16000.000000	88.855	-176.9116
16250.000000	86.139	169.0891
16500.000000	83.554	166.1749
16750.000000	81.389	169.4731
17000.000000	79.653	175.2513
17250.000000	78.487	-175.4809
17500.000000	77.573	-167.7036
17750.000000	77.164	-162.0270
18000.000000	76.082	-154.7261
18250.000000	76.371	-145.2800
18500.000000	76.900	-141.7718
18750.000000	77.057	-138.7086
19000.000000	77.037	-133.2724
19250.000000	77.088	-134.1191
19500.000000	76.635	-136.0514
19750.000000	75.829	-136.1960
20000.000000	74.358	-130.8652
