* Measurement data measured by REW V5.31.1
* Source: EXCL: Micr√≥fono (Realtek(R) Audio), MICROPHONE (Volumen general), L, volume: 0,900. Timing signal peak level -12,4 dBFS, measurement signal peak level -12,4 dBFS
* Format: 512k Log Swept Sine, 1 sweep at -12,0 dBFS using an acoustic timing reference
* Dated: 27/07/2024 12:44:30 AM
* REW Settings:
*  C-weighting compensation: Off
*  Target level: 75.0 dB
* Note: Delay -0,0055 ms (-1,9 mm, -0,07 in) using estimated IR delay relative to Acoustic reference played from SPEAKER L with no timing offset
* Measurement: L rose gold + m bal eartips
* Smoothing: None
* Frequency Step: 1/48 octave
* Start Frequency: 20.000 Hz
*
* Freq(Hz)	SPL(dB)	Phase(degrees)
20.000000	101.294	-141.6052
20.299999	101.328	-142.3109
20.600000	101.361	-143.0134
20.900000	101.391	-143.7090
21.200001	101.419	-144.3924
21.400000	101.437	-144.8393
21.799999	101.470	-145.7137
22.000000	101.486	-146.1429
22.400000	101.516	-146.9892
22.700001	101.536	-147.6140
23.000000	101.554	-148.2272
23.299999	101.571	-148.8244
23.600000	101.586	-149.4023
24.000000	101.606	-150.1452
24.299999	101.623	-150.6904
24.700001	101.646	-151.4174
25.000000	101.663	-151.9702
25.400000	101.683	-152.7159
25.799999	101.698	-153.4530
26.200001	101.708	-154.1582
26.500000	101.714	-154.6588
26.900000	101.724	-155.2952
27.200001	101.734	-155.7609
27.600000	101.749	-156.3854
28.000000	101.763	-157.0225
28.500000	101.776	-157.8229
29.000000	101.782	-158.5905
29.500000	101.787	-159.3031
30.000000	101.795	-159.9754
30.400000	101.804	-160.5074
30.700001	101.812	-160.9134
31.100000	101.822	-161.4687
31.500000	101.828	-162.0345
32.000000	101.831	-162.7352
32.500000	101.828	-163.4023
33.000000	101.823	-164.0250
33.500000	101.821	-164.6172
34.000000	101.820	-165.2046
34.500000	101.820	-165.7994
35.000000	101.816	-166.3913
35.500000	101.809	-166.9627
36.000000	101.801	-167.5071
36.500000	101.795	-168.0312
37.000000	101.791	-168.5472
37.500000	101.788	-169.0663
38.200001	101.784	-169.8154
38.700001	101.776	-170.3648
39.500000	101.752	-171.2093
40.000000	101.733	-171.6769
40.599998	101.718	-172.1849
41.200001	101.711	-172.6973
41.799999	101.706	-173.2608
42.500000	101.692	-173.9525
43.099998	101.673	-174.5170
43.700001	101.654	-175.0473
44.400002	101.632	-175.6528
45.000000	101.611	-176.1478
45.500000	101.593	-176.5223
46.200001	101.578	-177.0152
46.799999	101.573	-177.4793
47.500000	101.558	-178.0905
48.200001	101.527	-178.6632
48.700001	101.503	-178.9923
49.400002	101.482	-179.4046
50.000000	101.471	-179.8142
50.799999	101.444	179.5869
51.500000	101.412	179.1498
52.200001	101.392	178.7462
53.000000	101.368	178.1935
53.799999	101.329	177.6739
54.500000	101.300	177.2942
55.200001	101.276	176.8771
56.000000	101.237	176.4002
57.000000	101.195	175.9229
58.000000	101.168	175.3707
59.000000	101.128	174.7325
60.000000	101.067	174.1562
60.799999	101.023	173.8293
61.500000	101.001	173.5380
62.200001	100.979	173.1807
63.000000	100.949	172.7849
64.000000	100.920	172.2595
65.000000	100.869	171.6840
66.000000	100.811	171.3263
67.000000	100.776	171.0017
68.000000	100.743	170.6343
69.000000	100.712	170.2183
70.000000	100.665	169.7548
71.000000	100.613	169.3965
72.000000	100.570	169.0410
73.000000	100.525	168.6862
74.000000	100.490	168.3602
75.000000	100.454	167.9208
76.199997	100.387	167.5175
77.500000	100.344	167.1307
78.800003	100.269	166.7382
80.000000	100.232	166.4642
81.199997	100.167	166.0775
82.500000	100.122	165.7670
83.800003	100.048	165.3710
85.000000	100.013	165.0867
86.199997	99.956	164.6641
87.500000	99.900	164.3418
88.500000	99.853	164.0909
90.000000	99.790	163.8079
91.199997	99.745	163.5600
92.500000	99.690	163.2912
93.800003	99.642	163.0148
95.000000	99.583	162.7690
96.199997	99.536	162.6066
97.500000	99.491	162.3140
98.800003	99.419	162.0468
100.000000	99.362	161.9504
101.500000	99.305	161.8145
103.000000	99.261	161.5227
104.400002	99.198	161.2642
106.000000	99.126	161.0673
107.500000	99.082	160.8405
109.000000	99.011	160.6394
110.599998	98.958	160.4716
112.000000	98.912	160.2576
113.800003	98.823	160.0908
115.000000	98.796	160.0353
117.199997	98.705	159.7877
118.000000	98.675	159.7240
120.599998	98.594	159.5311
122.000000	98.538	159.3938
124.099998	98.463	159.1686
125.000000	98.424	159.1542
126.500000	98.390	158.9912
128.000000	98.307	158.9342
131.500000	98.217	158.7870
132.000000	98.204	158.6979
134.000000	98.122	158.6139
136.000000	98.051	158.5740
138.000000	97.978	158.4853
140.000000	97.921	158.4359
143.000000	97.817	158.3525
145.000000	97.758	158.3253
147.500000	97.657	158.2738
150.000000	97.582	158.2178
152.500000	97.510	158.0667
155.000000	97.442	158.2211
157.500000	97.354	158.3105
160.000000	97.257	158.1086
162.500000	97.172	158.2995
165.000000	97.068	158.6377
167.500000	96.919	158.6630
170.000000	96.829	157.9694
172.500000	96.744	159.7466
175.000000	96.721	160.1071
177.500000	96.713	160.7755
180.000000	96.628	161.3340
182.500000	96.697	161.7373
185.000000	96.796	161.1306
187.500000	96.795	160.6957
190.000000	96.741	160.3163
192.500000	96.663	160.0352
195.000000	96.584	159.8311
197.500000	96.517	159.7375
200.000000	96.446	159.8128
203.000000	96.372	159.8905
206.000000	96.289	159.9462
209.000000	96.239	160.1301
212.000000	96.164	160.0636
214.000000	96.144	160.1163
218.000000	96.061	160.2089
220.000000	96.016	160.2804
224.000000	95.956	160.4465
227.000000	95.900	160.6968
230.000000	95.852	160.7375
233.000000	95.797	160.9005
236.000000	95.753	161.2441
240.000000	95.696	161.2958
243.000000	95.654	161.4509
247.000000	95.591	161.7350
250.000000	95.534	161.9791
254.000000	95.457	162.2792
258.000000	95.405	162.3095
262.000000	95.346	162.6492
265.000000	95.322	162.8320
269.000000	95.258	163.1077
272.000000	95.203	163.1822
276.000000	95.159	163.5828
280.000000	95.112	163.8274
285.000000	95.027	164.0460
290.000000	94.967	164.4047
295.000000	94.909	164.7462
300.000000	94.865	165.1103
304.000000	94.822	165.4826
307.000000	94.774	165.7338
311.000000	94.742	166.1733
315.000000	94.689	166.3016
320.000000	94.636	166.8358
325.000000	94.563	167.2701
330.000000	94.549	167.8617
335.000000	94.543	168.2797
340.000000	94.537	168.7022
345.000000	94.539	168.8250
350.000000	94.527	169.1391
355.000000	94.487	169.4840
360.000000	94.448	169.5943
365.000000	94.418	169.8512
370.000000	94.384	170.1424
375.000000	94.368	170.2403
382.000000	94.315	170.7672
387.000000	94.270	171.1857
395.000000	94.222	171.7997
400.000000	94.165	171.8228
406.000000	94.173	172.3230
412.000000	94.127	172.8161
418.000000	94.094	173.2029
425.000000	94.057	173.6207
431.000000	94.037	173.8839
437.000000	94.017	174.3184
444.000000	93.977	174.7646
450.000000	93.968	174.9782
455.000000	93.965	175.5743
462.000000	93.920	175.9276
468.000000	93.917	176.4972
475.000000	93.856	176.8361
482.000000	93.858	177.2625
487.000000	93.855	177.5586
494.000000	93.851	178.2339
500.000000	93.815	178.5261
508.000000	93.804	179.1006
515.000000	93.809	179.5046
522.000000	93.831	179.9825
530.000000	93.835	-179.5917
538.000000	93.791	-179.0485
545.000000	93.783	-178.9007
552.000000	93.779	-178.2359
560.000000	93.760	-177.9259
570.000000	93.756	-177.0948
580.000000	93.755	-176.4417
590.000000	93.756	-175.8473
600.000000	93.768	-175.1748
608.000000	93.772	-174.8687
615.000000	93.771	-174.5468
622.000000	93.769	-174.0928
630.000000	93.774	-173.5317
640.000000	93.793	-172.9796
650.000000	93.812	-172.3557
660.000000	93.824	-171.7410
670.000000	93.829	-171.0089
680.000000	93.824	-170.5137
690.000000	93.856	-169.9981
700.000000	93.866	-169.5056
710.000000	93.916	-168.7371
720.000000	93.946	-168.1458
730.000000	93.974	-167.5921
740.000000	94.010	-167.1810
750.000000	94.031	-166.5223
762.000000	94.044	-166.0743
775.000000	94.119	-165.1737
788.000000	94.177	-164.5335
800.000000	94.201	-163.8151
812.000000	94.249	-163.3216
825.000000	94.317	-162.6023
838.000000	94.390	-161.8208
850.000000	94.419	-161.2143
862.000000	94.487	-160.6868
875.000000	94.537	-160.0493
885.000000	94.585	-159.6590
900.000000	94.668	-159.1059
912.000000	94.761	-158.5271
925.000000	94.789	-157.8199
938.000000	94.903	-157.3502
950.000000	94.966	-156.9749
962.000000	95.039	-156.4858
975.000000	95.161	-156.0463
988.000000	95.195	-155.7295
1000.000000	95.290	-155.2064
1015.000000	95.384	-154.8645
1030.000000	95.489	-154.4012
1044.000000	95.576	-154.0170
1060.000000	95.663	-153.7446
1075.000000	95.766	-153.4211
1090.000000	95.874	-152.9659
1106.000000	95.986	-152.7976
1120.000000	96.060	-152.4707
1138.000000	96.191	-152.2223
1150.000000	96.261	-152.2596
1172.000000	96.396	-151.7762
1180.000000	96.469	-151.7868
1206.000000	96.600	-151.6203
1220.000000	96.712	-151.3990
1241.000000	96.823	-151.4269
1250.000000	96.891	-151.3039
1265.000000	96.982	-151.2504
1280.000000	97.085	-151.1148
1315.000000	97.319	-151.1332
1320.000000	97.331	-151.0426
1340.000000	97.448	-151.0857
1360.000000	97.584	-151.3062
1380.000000	97.701	-151.3328
1400.000000	97.823	-151.3533
1430.000000	98.010	-151.4783
1450.000000	98.116	-151.4852
1475.000000	98.283	-151.7439
1500.000000	98.427	-152.0352
1525.000000	98.555	-152.2502
1550.000000	98.699	-152.4668
1575.000000	98.834	-152.7514
1600.000000	98.962	-153.0766
1625.000000	99.098	-153.4227
1650.000000	99.233	-153.8906
1675.000000	99.360	-154.2529
1700.000000	99.495	-154.8722
1725.000000	99.604	-155.2588
1750.000000	99.737	-155.8063
1775.000000	99.837	-156.4067
1800.000000	99.944	-156.9685
1825.000000	100.044	-157.5735
1850.000000	100.145	-158.1615
1875.000000	100.213	-158.8494
1900.000000	100.310	-159.5332
1925.000000	100.383	-160.2173
1950.000000	100.443	-160.8720
1975.000000	100.518	-161.5869
2000.000000	100.596	-162.2673
2030.000000	100.666	-163.2575
2060.000000	100.715	-164.1626
2090.000000	100.754	-165.0600
2120.000000	100.792	-165.9504
2140.000000	100.810	-166.5990
2180.000000	100.842	-167.7754
2200.000000	100.844	-168.3981
2240.000000	100.844	-169.4895
2270.000000	100.849	-170.1470
2300.000000	100.831	-170.9612
2330.000000	100.800	-171.6781
2360.000000	100.786	-172.3457
2400.000000	100.734	-173.3333
2430.000000	100.687	-173.9384
2470.000000	100.634	-174.6337
2500.000000	100.573	-175.0545
2540.000000	100.519	-175.7820
2580.000000	100.456	-176.1683
2620.000000	100.375	-176.7037
2650.000000	100.348	-176.8721
2690.000000	100.285	-177.2076
2720.000000	100.210	-177.3127
2760.000000	100.165	-177.5095
2800.000000	100.102	-177.5990
2850.000000	100.053	-177.7122
2900.000000	99.991	-177.4929
2950.000000	99.948	-177.4478
3000.000000	99.926	-177.3594
3040.000000	99.895	-177.0361
3070.000000	99.901	-176.9543
3110.000000	99.906	-176.5936
3150.000000	99.926	-176.4431
3200.000000	99.965	-176.2549
3250.000000	99.963	-176.2183
3300.000000	99.980	-176.4271
3350.000000	100.000	-176.5871
3400.000000	100.003	-176.8343
3450.000000	99.992	-176.8848
3500.000000	99.996	-177.0901
3550.000000	99.999	-177.2174
3600.000000	100.007	-177.5438
3650.000000	100.021	-177.7758
3700.000000	100.014	-178.0982
3750.000000	100.014	-178.5542
3820.000000	100.005	-179.0631
3870.000000	99.992	-179.4066
3950.000000	99.966	-179.9331
4000.000000	99.942	179.7432
4060.000000	99.951	179.4429
4120.000000	100.006	178.9981
4180.000000	100.055	178.5522
4250.000000	100.100	177.7903
4310.000000	100.106	176.8984
4370.000000	100.128	176.1750
4440.000000	100.149	174.9894
4500.000000	100.165	174.1063
4550.000000	100.141	173.1807
4620.000000	100.108	171.9628
4680.000000	100.058	170.7560
4750.000000	99.963	169.3839
4820.000000	99.860	167.9659
4870.000000	99.760	166.9230
4940.000000	99.610	165.3770
5000.000000	99.406	163.9828
5080.000000	99.011	162.2944
5150.000000	98.611	161.2964
5220.000000	98.195	161.0800
5300.000000	97.718	161.3291
5380.000000	97.264	162.2216
5450.000000	96.917	163.4158
5520.000000	96.632	164.7863
5600.000000	96.348	166.1825
5700.000000	96.085	168.1627
5800.000000	95.839	170.4468
5900.000000	95.635	172.5558
6000.000000	95.439	174.7018
6080.000000	95.328	176.6439
6150.000000	95.228	178.2087
6220.000000	95.152	-179.9926
6300.000000	95.086	-177.9751
6400.000000	95.054	-175.1976
6500.000000	95.186	-172.1725
6600.000000	95.336	-169.4178
6700.000000	95.596	-166.7000
6800.000000	95.947	-164.1077
6900.000000	96.277	-162.1067
7000.000000	96.735	-160.0776
7100.000000	97.221	-158.9090
7200.000000	97.692	-158.3498
7300.000000	98.212	-158.1900
7400.000000	98.647	-158.0412
7500.000000	99.208	-157.7775
7620.000000	100.063	-158.6160
7750.000000	100.991	-162.5863
7880.000000	101.657	-168.7923
8000.000000	101.947	-175.5847
8120.000000	101.785	177.6713
8250.000000	101.286	171.6429
8380.000000	100.586	167.5984
8500.000000	99.956	165.6079
8620.000000	99.361	164.8928
8750.000000	98.869	165.2830
8850.000000	98.610	165.7434
9000.000000	98.431	166.4629
9120.000000	98.374	166.3885
9250.000000	98.338	165.9774
9380.000000	98.341	165.0620
9500.000000	98.501	164.2867
9620.000000	98.729	161.0838
9750.000000	98.743	155.1918
9880.000000	98.264	148.2510
10000.000000	97.243	143.9464
10150.000000	96.233	144.3920
10300.000000	95.878	141.9828
10440.000000	95.247	136.0814
10600.000000	93.434	127.5302
10750.000000	89.823	129.4291
10900.000000	88.225	150.3998
11060.000000	88.761	161.0809
11200.000000	88.712	165.4924
11380.000000	88.673	172.7000
11500.000000	88.482	174.9869
11720.000000	88.289	-177.1810
11800.000000	88.219	-174.0543
12060.000000	88.564	-164.8726
12200.000000	88.801	-160.6030
12410.000000	89.139	-152.4078
12500.000000	89.592	-149.6537
12650.000000	90.321	-144.9649
12800.000000	91.402	-142.1166
13150.000000	93.046	-152.0163
13200.000000	92.847	-154.0774
13400.000000	91.519	-154.0689
13600.000000	91.117	-143.7457
13800.000000	92.062	-133.1044
14000.000000	93.721	-129.2452
14300.000000	96.059	-130.3690
14500.000000	97.126	-134.0263
14750.000000	98.724	-136.8008
15000.000000	100.560	-144.6168
15250.000000	102.296	-156.0773
15500.000000	103.887	-173.5215
15750.000000	104.806	159.4389
16000.000000	102.548	128.2527
16250.000000	98.740	118.2462
16500.000000	97.326	122.8017
16750.000000	96.627	110.9393
17000.000000	93.193	109.4390
17250.000000	92.063	118.6725
17500.000000	92.012	135.4940
17750.000000	93.951	136.3146
18000.000000	95.579	129.8396
18250.000000	97.173	116.9070
18500.000000	97.930	93.1902
18750.000000	96.889	74.3752
19000.000000	96.845	45.2141
19250.000000	93.922	5.3031
19500.000000	87.716	-32.5976
19750.000000	76.510	-46.7465
