* Measurement data measured by REW V5.31.1
* Source: EXCL: Micr√≥fono (Realtek(R) Audio), MICROPHONE (Volumen general), L, volume: 0,900. Timing signal peak level -13,6 dBFS, measurement signal peak level -9,2 dBFS
* Format: 512k Log Swept Sine, 1 sweep at -12,0 dBFS using an acoustic timing reference
* Dated: 30/07/2024 12:42:11 AM
* REW Settings:
*  C-weighting compensation: Off
*  Target level: 75.0 dB
* Note: Delay -0,0183 ms (-6,3 mm, -0,25 in) using estimated IR delay relative to Acoustic reference played from SPEAKER R with no timing offset
* Measurement: R 166
* Smoothing: None
* Frequency Step: 1/48 octave
* Start Frequency: 20.000 Hz
*
* Freq(Hz)	SPL(dB)	Phase(degrees)
20.000000	105.037	-162.7639
20.299999	105.025	-163.5044
20.600000	105.008	-164.1984
20.900000	104.990	-164.8398
21.200001	104.974	-165.4370
21.400000	104.965	-165.8195
21.799999	104.952	-166.5697
22.000000	104.948	-166.9447
22.400000	104.939	-167.6992
22.700001	104.931	-168.2662
23.000000	104.922	-168.8287
23.299999	104.912	-169.3827
23.600000	104.900	-169.9254
24.000000	104.883	-170.6289
24.299999	104.870	-171.1400
24.700001	104.852	-171.7993
25.000000	104.839	-172.2801
25.400000	104.824	-172.9110
25.799999	104.808	-173.5389
26.200001	104.792	-174.1642
26.500000	104.777	-174.6262
26.900000	104.757	-175.2264
27.200001	104.742	-175.6641
27.600000	104.722	-176.2378
28.000000	104.701	-176.8075
28.500000	104.673	-177.5107
29.000000	104.641	-178.1818
29.500000	104.611	-178.8142
30.000000	104.584	-179.4367
30.400000	104.562	-179.9449
30.700001	104.544	179.6724
31.100000	104.516	179.1791
31.500000	104.486	178.7243
32.000000	104.454	178.2029
32.500000	104.430	177.6825
33.000000	104.406	177.1193
33.500000	104.376	176.5345
34.000000	104.337	175.9886
34.500000	104.300	175.5037
35.000000	104.270	175.0384
35.500000	104.242	174.5438
36.000000	104.211	174.0238
36.500000	104.173	173.5269
37.000000	104.134	173.0844
37.500000	104.103	172.6699
38.200001	104.066	172.0390
38.700001	104.035	171.5471
39.500000	103.968	170.8325
40.000000	103.929	170.4653
40.599998	103.893	170.0327
41.200001	103.858	169.5548
41.799999	103.816	169.0740
42.500000	103.765	168.5722
43.099998	103.726	168.1491
43.700001	103.685	167.6955
44.400002	103.629	167.1939
45.000000	103.584	166.8204
45.500000	103.552	166.5067
46.200001	103.510	166.0132
46.799999	103.466	165.5800
47.500000	103.413	165.1306
48.200001	103.367	164.7106
48.700001	103.336	164.3948
49.400002	103.287	163.9473
50.000000	103.242	163.6013
50.799999	103.186	163.1903
51.500000	103.141	162.8182
52.200001	103.089	162.4488
53.000000	103.028	162.0936
53.799999	102.977	161.7396
54.500000	102.930	161.3839
55.200001	102.878	161.0357
56.000000	102.820	160.6492
57.000000	102.744	160.1689
58.000000	102.672	159.7334
59.000000	102.600	159.2860
60.000000	102.534	158.9312
60.799999	102.492	158.5902
61.500000	102.445	158.2499
62.200001	102.393	157.9705
63.000000	102.338	157.6732
64.000000	102.264	157.3131
65.000000	102.199	157.0391
66.000000	102.136	156.6635
67.000000	102.060	156.3889
68.000000	102.005	156.1237
69.000000	101.939	155.7627
70.000000	101.869	155.5018
71.000000	101.805	155.2133
72.000000	101.736	154.9502
73.000000	101.675	154.6885
74.000000	101.606	154.4097
75.000000	101.545	154.2014
76.199997	101.475	153.8266
77.500000	101.381	153.5923
78.800003	101.318	153.3052
80.000000	101.231	153.0095
81.199997	101.155	152.8511
82.500000	101.080	152.6260
83.800003	101.007	152.3622
85.000000	100.934	152.1277
86.199997	100.865	151.8925
87.500000	100.787	151.6934
88.500000	100.733	151.5098
90.000000	100.635	151.3823
91.199997	100.587	151.2177
92.500000	100.494	150.9760
93.800003	100.418	150.9305
95.000000	100.355	150.8261
96.199997	100.306	150.6637
97.500000	100.225	150.4217
98.800003	100.158	150.3271
100.000000	100.088	150.1775
101.500000	100.010	150.1114
103.000000	99.931	149.9876
104.400002	99.857	149.9369
106.000000	99.786	149.8022
107.500000	99.702	149.5900
109.000000	99.606	149.5626
110.599998	99.540	149.5310
112.000000	99.474	149.4127
113.800003	99.386	149.3220
115.000000	99.328	149.2884
117.199997	99.228	149.2678
118.000000	99.195	149.2453
120.599998	99.060	149.1730
122.000000	99.001	149.1216
124.099998	98.902	149.1600
125.000000	98.865	149.0858
126.500000	98.799	149.0909
128.000000	98.731	149.0578
131.500000	98.586	149.1176
132.000000	98.566	149.1250
134.000000	98.479	149.1749
136.000000	98.389	149.1636
138.000000	98.295	149.0935
140.000000	98.229	149.3484
143.000000	98.096	149.3150
145.000000	98.009	149.5629
147.500000	97.898	149.6226
150.000000	97.823	149.6990
152.500000	97.722	149.9352
155.000000	97.614	150.1689
157.500000	97.519	150.4094
160.000000	97.436	150.6072
162.500000	97.339	150.8745
165.000000	97.250	151.2148
167.500000	97.157	151.6349
170.000000	97.054	151.8134
172.500000	96.980	152.2006
175.000000	96.896	152.3524
177.500000	96.846	152.6494
180.000000	96.815	153.2570
182.500000	96.764	153.6046
185.000000	96.717	154.0612
187.500000	96.708	154.1851
190.000000	96.696	154.1945
192.500000	96.649	154.1700
195.000000	96.622	154.1225
197.500000	96.521	153.9432
200.000000	96.469	153.9169
203.000000	96.402	154.1087
206.000000	96.325	154.0324
209.000000	96.253	154.1884
212.000000	96.176	154.4813
214.000000	96.130	154.4386
218.000000	96.026	154.6506
220.000000	95.983	154.8804
224.000000	95.891	155.2719
227.000000	95.838	155.4850
230.000000	95.771	155.5519
233.000000	95.695	155.9932
236.000000	95.651	156.2631
240.000000	95.559	156.7181
243.000000	95.514	156.8173
247.000000	95.428	157.0214
250.000000	95.377	157.4343
254.000000	95.302	157.7399
258.000000	95.222	158.2067
262.000000	95.166	158.5213
265.000000	95.116	158.9958
269.000000	95.026	159.2300
272.000000	94.945	159.5992
276.000000	94.937	159.9939
280.000000	94.861	160.5423
285.000000	94.794	160.8527
290.000000	94.743	161.4689
295.000000	94.667	161.7487
300.000000	94.574	162.3741
304.000000	94.544	162.6674
307.000000	94.472	163.0084
311.000000	94.448	163.2643
315.000000	94.409	163.8427
320.000000	94.334	164.4349
325.000000	94.270	164.7457
330.000000	94.219	165.2914
335.000000	94.178	165.9431
340.000000	94.133	166.1903
345.000000	94.095	166.9843
350.000000	94.040	167.4223
355.000000	93.991	167.8409
360.000000	93.947	168.2921
365.000000	93.930	168.7646
370.000000	93.865	169.2097
375.000000	93.848	169.7090
382.000000	93.798	170.4504
387.000000	93.738	170.8425
395.000000	93.656	171.8267
400.000000	93.634	172.0595
406.000000	93.603	172.7942
412.000000	93.572	173.3753
418.000000	93.541	173.6615
425.000000	93.483	174.6344
431.000000	93.451	175.2225
437.000000	93.431	175.8166
444.000000	93.413	176.3801
450.000000	93.404	177.1666
455.000000	93.374	177.5435
462.000000	93.324	178.1760
468.000000	93.330	178.9776
475.000000	93.311	179.5404
482.000000	93.291	-179.8381
487.000000	93.279	-179.4260
494.000000	93.235	-178.7966
500.000000	93.232	-178.2146
508.000000	93.216	-177.5791
515.000000	93.170	-176.8879
522.000000	93.166	-176.2444
530.000000	93.149	-175.3686
538.000000	93.180	-174.8495
545.000000	93.145	-174.1207
552.000000	93.129	-173.4359
560.000000	93.140	-172.8105
570.000000	93.120	-171.9115
580.000000	93.107	-170.8853
590.000000	93.109	-170.1956
600.000000	93.100	-169.1583
608.000000	93.103	-168.3831
615.000000	93.124	-167.8981
622.000000	93.154	-167.1854
630.000000	93.119	-166.4790
640.000000	93.166	-165.7301
650.000000	93.169	-164.9054
660.000000	93.169	-163.9193
670.000000	93.196	-163.1489
680.000000	93.240	-162.3505
690.000000	93.252	-161.6034
700.000000	93.268	-160.5999
710.000000	93.299	-159.8185
720.000000	93.333	-159.1261
730.000000	93.395	-158.3785
740.000000	93.435	-157.7364
750.000000	93.463	-157.1640
762.000000	93.507	-156.6317
775.000000	93.475	-156.1312
788.000000	93.394	-155.9828
800.000000	93.077	-155.1101
812.000000	92.934	-150.6947
825.000000	93.336	-148.0840
838.000000	93.569	-147.0456
850.000000	93.724	-146.5604
862.000000	93.847	-145.6442
875.000000	93.965	-144.7192
885.000000	94.025	-144.1091
900.000000	94.156	-143.1637
912.000000	94.223	-142.4004
925.000000	94.331	-141.6162
938.000000	94.458	-140.6690
950.000000	94.541	-140.0447
962.000000	94.643	-139.4355
975.000000	94.762	-138.6389
988.000000	94.865	-137.9150
1000.000000	94.982	-137.1728
1015.000000	95.081	-136.3409
1030.000000	95.219	-135.5480
1044.000000	95.330	-135.0438
1060.000000	95.476	-134.1429
1075.000000	95.610	-133.4321
1090.000000	95.719	-132.8564
1106.000000	95.880	-132.1059
1120.000000	96.004	-131.4746
1138.000000	96.146	-130.8917
1150.000000	96.260	-130.2970
1172.000000	96.438	-129.5928
1180.000000	96.518	-129.3385
1206.000000	96.726	-128.4297
1220.000000	96.866	-127.9274
1241.000000	97.037	-127.2557
1250.000000	97.119	-127.0142
1265.000000	97.248	-126.6222
1280.000000	97.387	-126.1181
1315.000000	97.701	-125.0371
1320.000000	97.763	-124.9770
1340.000000	97.931	-124.4510
1360.000000	98.120	-123.7645
1380.000000	98.317	-123.2973
1400.000000	98.504	-122.9081
1430.000000	98.801	-122.0971
1450.000000	99.002	-121.6975
1475.000000	99.243	-121.0391
1500.000000	99.497	-120.4797
1525.000000	99.758	-120.0600
1550.000000	100.023	-119.6750
1575.000000	100.294	-119.1072
1600.000000	100.586	-118.7052
1625.000000	100.873	-118.4156
1650.000000	101.172	-118.1574
1675.000000	101.473	-117.9351
1700.000000	101.789	-117.8226
1725.000000	102.104	-117.7419
1750.000000	102.438	-117.7008
1775.000000	102.756	-117.8499
1800.000000	103.107	-118.0283
1825.000000	103.457	-118.2985
1850.000000	103.809	-118.6869
1875.000000	104.169	-119.2539
1900.000000	104.542	-119.9925
1925.000000	104.904	-120.8704
1950.000000	105.279	-121.8407
1975.000000	105.641	-122.9539
2000.000000	106.013	-124.3406
2030.000000	106.450	-126.2686
2060.000000	106.863	-128.4930
2090.000000	107.261	-130.9862
2120.000000	107.624	-133.8163
2140.000000	107.845	-135.8505
2180.000000	108.221	-140.3318
2200.000000	108.366	-142.6800
2240.000000	108.582	-147.6025
2270.000000	108.665	-151.4016
2300.000000	108.676	-155.1227
2330.000000	108.621	-158.7876
2360.000000	108.507	-162.2286
2400.000000	108.274	-166.4658
2430.000000	108.048	-169.3235
2470.000000	107.707	-172.5763
2500.000000	107.435	-174.7159
2540.000000	107.040	-177.1439
2580.000000	106.654	-179.0331
2620.000000	106.260	179.4449
2650.000000	105.969	178.5784
2690.000000	105.602	177.7757
2720.000000	105.331	177.2664
2760.000000	104.990	176.9025
2800.000000	104.670	176.7078
2850.000000	104.302	176.7794
2900.000000	103.953	177.1252
2950.000000	103.644	177.7002
3000.000000	103.368	178.3642
3040.000000	103.169	179.0226
3070.000000	103.025	179.5958
3110.000000	102.847	-179.6725
3150.000000	102.691	-178.6300
3200.000000	102.458	-177.6465
3250.000000	102.254	-176.3685
3300.000000	102.088	-174.7815
3350.000000	101.978	-173.0420
3400.000000	101.918	-171.5887
3450.000000	101.857	-170.2962
3500.000000	101.817	-168.9254
3550.000000	101.795	-167.5357
3600.000000	101.771	-166.1560
3650.000000	101.803	-164.7440
3700.000000	101.823	-163.3961
3750.000000	101.894	-161.9510
3820.000000	102.009	-159.9607
3870.000000	102.133	-158.6053
3950.000000	102.375	-156.5151
4000.000000	102.548	-155.3514
4060.000000	102.849	-154.0715
4120.000000	103.182	-152.8446
4180.000000	103.558	-151.7863
4250.000000	104.058	-150.8494
4310.000000	104.526	-150.5157
4370.000000	105.045	-150.2977
4440.000000	105.713	-150.6065
4500.000000	106.335	-151.5696
4550.000000	106.866	-152.9142
4620.000000	107.651	-155.7771
4680.000000	108.325	-159.2091
4750.000000	109.047	-164.7953
4820.000000	109.587	-171.9645
4870.000000	109.816	-177.9572
4940.000000	109.826	173.1674
5000.000000	109.547	165.7607
5080.000000	108.804	157.1729
5150.000000	107.943	151.4225
5220.000000	107.013	147.1863
5300.000000	105.935	143.9683
5380.000000	104.871	142.0892
5450.000000	103.950	141.4437
5520.000000	103.082	141.4716
5600.000000	102.025	142.4706
5700.000000	100.673	149.0519
5800.000000	101.606	153.7197
5900.000000	100.710	151.6678
6000.000000	99.993	153.7929
6080.000000	99.593	155.9821
6150.000000	99.302	158.0790
6220.000000	99.027	160.2483
6300.000000	98.801	162.5911
6400.000000	98.639	165.5313
6500.000000	98.542	168.7429
6600.000000	98.505	171.4630
6700.000000	98.526	173.8639
6800.000000	98.546	176.6219
6900.000000	98.616	179.3640
7000.000000	98.719	-177.8435
7100.000000	98.982	-175.0572
7200.000000	99.337	-171.9409
7300.000000	99.818	-169.2999
7400.000000	100.490	-167.6235
7500.000000	101.296	-166.5552
7620.000000	102.484	-167.5540
7750.000000	103.919	-172.2113
7880.000000	105.229	177.6584
8000.000000	105.723	163.1464
8120.000000	105.044	147.7320
8250.000000	103.260	135.6516
8380.000000	101.195	129.6558
8500.000000	99.421	128.2925
8620.000000	97.838	129.1267
8750.000000	96.400	132.0294
8850.000000	95.472	134.6220
9000.000000	94.263	139.1060
9120.000000	93.405	142.3156
9250.000000	92.581	147.1025
9380.000000	91.924	151.6691
9500.000000	91.286	156.5983
9620.000000	90.797	161.0659
9750.000000	90.328	166.7035
9880.000000	89.955	172.3009
10000.000000	89.690	177.1173
10150.000000	89.478	-176.3560
10300.000000	89.406	-169.6193
10440.000000	89.441	-163.8199
10600.000000	89.572	-156.9281
10750.000000	89.983	-150.9305
10900.000000	90.357	-144.7308
11060.000000	90.927	-138.9165
11200.000000	91.766	-133.6651
11380.000000	92.980	-128.1667
11500.000000	94.037	-125.6075
11720.000000	96.640	-123.8149
11800.000000	97.799	-125.1415
12060.000000	101.853	-148.0956
12200.000000	102.043	-173.4735
12410.000000	98.746	162.1753
12500.000000	97.202	158.5098
12650.000000	94.962	157.2370
12800.000000	93.151	159.1903
13150.000000	90.066	167.9799
13200.000000	89.708	170.3088
13400.000000	88.630	176.7672
13600.000000	87.830	-174.8038
13800.000000	87.230	-166.6839
14000.000000	86.988	-159.9860
14300.000000	86.962	-147.7697
14500.000000	87.408	-140.4909
14750.000000	88.236	-132.8767
15000.000000	89.471	-128.4496
15250.000000	90.740	-124.6500
15500.000000	93.242	-123.4260
15750.000000	96.711	-138.6452
16000.000000	96.631	-176.2060
16250.000000	93.297	166.9229
16500.000000	90.548	165.8702
16750.000000	88.947	169.6750
17000.000000	88.080	176.3090
17250.000000	87.766	-177.9289
17500.000000	88.184	-172.7720
17750.000000	89.385	-172.4110
18000.000000	91.387	179.4903
18250.000000	92.047	152.4437
18500.000000	88.641	127.8747
18750.000000	84.356	121.0804
19000.000000	80.581	125.5568
19250.000000	77.535	134.3839
19500.000000	74.960	143.9313
19750.000000	72.619	160.3140
20000.000000	70.570	171.6552
