* Measurement data measured by REW V5.31.1
* Source: EXCL: Micr√≥fono (Realtek(R) Audio), MICROPHONE (Volumen general), L, volume: 0,900. Timing signal peak level -13,9 dBFS, measurement signal peak level -8,5 dBFS
* Format: 512k Log Swept Sine, 1 sweep at -12,0 dBFS using an acoustic timing reference
* Dated: 30/07/2024 12:39:25 AM
* REW Settings:
*  C-weighting compensation: Off
*  Target level: 75.0 dB
* Note: Delay -0,0168 ms (-5,8 mm, -0,23 in) using estimated IR delay relative to Acoustic reference played from SPEAKER L with no timing offset
* Measurement: L 163
* Smoothing: None
* Frequency Step: 1/48 octave
* Start Frequency: 20.000 Hz
*
* Freq(Hz)	SPL(dB)	Phase(degrees)
20.000000	105.373	-169.1917
20.299999	105.366	-169.7719
20.600000	105.360	-170.3697
20.900000	105.353	-170.9883
21.200001	105.341	-171.6171
21.400000	105.330	-172.0321
21.799999	105.302	-172.8257
22.000000	105.286	-173.1970
22.400000	105.256	-173.8890
22.700001	105.236	-174.3776
23.000000	105.219	-174.8577
23.299999	105.205	-175.3427
23.600000	105.191	-175.8384
24.000000	105.169	-176.5086
24.299999	105.150	-177.0053
24.700001	105.122	-177.6434
25.000000	105.101	-178.1007
25.400000	105.074	-178.6894
25.799999	105.049	-179.2690
26.200001	105.025	-179.8488
26.500000	105.005	179.7179
26.900000	104.977	179.1501
27.200001	104.955	178.7361
27.600000	104.925	178.2010
28.000000	104.896	177.6809
28.500000	104.859	177.0445
29.000000	104.821	176.4261
29.500000	104.784	175.8331
30.000000	104.748	175.2574
30.400000	104.722	174.7930
30.700001	104.703	174.4355
31.100000	104.674	173.9488
31.500000	104.640	173.4673
32.000000	104.594	172.9089
32.500000	104.548	172.4156
33.000000	104.510	171.9565
33.500000	104.478	171.4810
34.000000	104.446	170.9711
34.500000	104.408	170.4556
35.000000	104.366	169.9707
35.500000	104.326	169.5172
36.000000	104.289	169.0659
36.500000	104.251	168.6003
37.000000	104.208	168.1395
37.500000	104.161	167.7160
38.200001	104.100	167.1952
38.700001	104.064	166.8349
39.500000	104.010	166.1964
40.000000	103.972	165.7692
40.599998	103.919	165.2859
41.200001	103.866	164.8592
41.799999	103.819	164.4507
42.500000	103.766	163.9423
43.099998	103.715	163.5089
43.700001	103.662	163.1259
44.400002	103.609	162.7130
45.000000	103.568	162.3292
45.500000	103.531	161.9886
46.200001	103.473	161.5334
46.799999	103.423	161.1855
47.500000	103.369	160.7964
48.200001	103.316	160.4027
48.700001	103.276	160.1309
49.400002	103.221	159.7723
50.000000	103.175	159.4700
50.799999	103.112	159.0724
51.500000	103.059	158.7454
52.200001	103.007	158.4022
53.000000	102.940	157.9804
53.799999	102.865	157.6457
54.500000	102.812	157.4086
55.200001	102.766	157.0985
56.000000	102.701	156.7001
57.000000	102.618	156.3214
58.000000	102.548	155.9139
59.000000	102.470	155.5009
60.000000	102.394	155.1156
60.799999	102.329	154.8266
61.500000	102.274	154.6341
62.200001	102.228	154.4438
63.000000	102.177	154.1802
64.000000	102.110	153.8207
65.000000	102.034	153.4697
66.000000	101.958	153.1950
67.000000	101.888	152.9023
68.000000	101.811	152.6368
69.000000	101.744	152.4143
70.000000	101.676	152.1369
71.000000	101.604	151.8901
72.000000	101.533	151.6444
73.000000	101.459	151.4142
74.000000	101.389	151.2188
75.000000	101.323	151.0302
76.199997	101.255	150.7567
77.500000	101.155	150.3842
78.800003	101.060	150.2854
80.000000	100.996	150.0933
81.199997	100.920	149.8550
82.500000	100.834	149.6794
83.800003	100.758	149.4593
85.000000	100.676	149.3047
86.199997	100.609	149.1533
87.500000	100.528	148.9214
88.500000	100.455	148.7853
90.000000	100.367	148.7023
91.199997	100.293	148.5093
92.500000	100.211	148.4351
93.800003	100.139	148.3569
95.000000	100.083	148.2508
96.199997	100.014	148.0817
97.500000	99.930	147.9899
98.800003	99.857	147.9337
100.000000	99.783	147.8347
101.500000	99.703	147.7483
103.000000	99.612	147.6228
104.400002	99.537	147.6313
106.000000	99.473	147.5326
107.500000	99.388	147.4745
109.000000	99.318	147.4771
110.599998	99.240	147.3309
112.000000	99.150	147.3658
113.800003	99.075	147.3174
115.000000	99.007	147.2833
117.199997	98.893	147.2284
118.000000	98.850	147.3056
120.599998	98.736	147.2135
122.000000	98.661	147.2847
124.099998	98.575	147.2434
125.000000	98.528	147.2563
126.500000	98.462	147.3461
128.000000	98.405	147.3196
131.500000	98.238	147.4107
132.000000	98.214	147.4367
134.000000	98.127	147.5965
136.000000	98.055	147.6365
138.000000	97.957	147.6645
140.000000	97.872	147.7401
143.000000	97.753	147.9125
145.000000	97.668	148.1361
147.500000	97.577	148.1839
150.000000	97.489	148.3341
152.500000	97.379	148.4840
155.000000	97.264	148.7596
157.500000	97.171	148.9035
160.000000	97.068	149.2925
162.500000	96.969	149.7276
165.000000	96.857	150.0262
167.500000	96.777	150.3512
170.000000	96.700	150.8441
172.500000	96.663	151.2092
175.000000	96.605	151.9272
177.500000	96.506	151.9038
180.000000	96.462	152.2079
182.500000	96.437	152.4382
185.000000	96.373	152.6528
187.500000	96.295	153.0688
190.000000	96.259	153.1952
192.500000	96.235	153.1943
195.000000	96.199	153.2525
197.500000	96.134	153.2798
200.000000	96.065	153.3750
203.000000	96.011	153.4264
206.000000	95.955	153.5793
209.000000	95.878	153.6730
212.000000	95.803	153.8761
214.000000	95.732	153.8469
218.000000	95.649	154.3844
220.000000	95.620	154.4483
224.000000	95.526	154.6839
227.000000	95.462	154.9390
230.000000	95.405	155.2358
233.000000	95.334	155.6104
236.000000	95.274	155.8772
240.000000	95.204	156.1838
243.000000	95.140	156.6036
247.000000	95.072	157.0406
250.000000	95.017	157.3421
254.000000	94.958	157.7321
258.000000	94.890	158.0723
262.000000	94.809	158.6517
265.000000	94.759	158.8543
269.000000	94.702	159.1012
272.000000	94.643	159.4511
276.000000	94.572	159.9530
280.000000	94.500	160.3043
285.000000	94.432	160.7896
290.000000	94.377	161.2853
295.000000	94.281	161.8297
300.000000	94.239	162.3891
304.000000	94.195	162.9409
307.000000	94.144	163.3066
311.000000	94.057	163.6549
315.000000	94.026	163.9840
320.000000	93.971	164.5320
325.000000	93.954	164.9930
330.000000	93.891	165.7256
335.000000	93.819	166.2321
340.000000	93.787	166.9451
345.000000	93.732	167.3163
350.000000	93.710	167.8859
355.000000	93.668	168.3546
360.000000	93.659	169.0077
365.000000	93.573	169.2999
370.000000	93.566	169.8179
375.000000	93.499	170.2640
382.000000	93.456	170.9420
387.000000	93.411	171.3207
395.000000	93.373	172.4187
400.000000	93.328	172.8024
406.000000	93.304	173.5300
412.000000	93.280	173.9730
418.000000	93.236	174.5157
425.000000	93.181	175.4622
431.000000	93.143	175.9833
437.000000	93.138	176.5830
444.000000	93.087	177.2664
450.000000	93.052	177.7318
455.000000	93.059	178.3163
462.000000	93.029	179.0390
468.000000	93.021	179.5140
475.000000	92.987	-179.7029
482.000000	92.975	-178.8284
487.000000	92.946	-178.4238
494.000000	92.947	-177.8595
500.000000	92.932	-177.2909
508.000000	92.904	-176.6463
515.000000	92.897	-175.9285
522.000000	92.868	-175.2398
530.000000	92.860	-174.3755
538.000000	92.888	-173.7101
545.000000	92.838	-173.2050
552.000000	92.829	-172.6591
560.000000	92.854	-171.6835
570.000000	92.832	-170.8788
580.000000	92.816	-169.7532
590.000000	92.829	-169.0694
600.000000	92.834	-168.1130
608.000000	92.832	-167.2464
615.000000	92.845	-166.5767
622.000000	92.888	-166.0233
630.000000	92.859	-165.2714
640.000000	92.897	-164.4178
650.000000	92.887	-163.4723
660.000000	92.916	-162.5201
670.000000	92.933	-161.7352
680.000000	92.967	-160.7238
690.000000	92.996	-159.8650
700.000000	93.003	-159.2068
710.000000	93.028	-158.1954
720.000000	93.080	-157.6196
730.000000	93.134	-156.4912
740.000000	93.145	-155.7946
750.000000	93.196	-155.1547
762.000000	93.251	-154.3460
775.000000	93.291	-153.6311
788.000000	93.182	-152.7663
800.000000	93.202	-150.5344
812.000000	93.339	-149.1070
825.000000	93.461	-148.1859
838.000000	93.536	-146.9559
850.000000	93.649	-146.0069
862.000000	93.712	-145.1358
875.000000	93.786	-144.1117
885.000000	93.900	-143.4338
900.000000	93.947	-142.3469
912.000000	94.082	-141.4510
925.000000	94.198	-140.6212
938.000000	94.274	-139.8077
950.000000	94.370	-138.8167
962.000000	94.464	-138.1907
975.000000	94.588	-137.4245
988.000000	94.700	-136.6421
1000.000000	94.794	-135.7298
1015.000000	94.907	-135.1417
1030.000000	95.033	-134.1911
1044.000000	95.142	-133.3791
1060.000000	95.297	-132.6623
1075.000000	95.428	-131.9506
1090.000000	95.588	-131.1512
1106.000000	95.701	-130.4990
1120.000000	95.813	-129.9553
1138.000000	95.992	-129.2375
1150.000000	96.106	-128.6325
1172.000000	96.289	-127.7848
1180.000000	96.338	-127.5693
1206.000000	96.588	-126.5874
1220.000000	96.714	-126.1290
1241.000000	96.891	-125.3861
1250.000000	96.971	-125.1145
1265.000000	97.115	-124.6391
1280.000000	97.255	-124.1412
1315.000000	97.572	-123.0885
1320.000000	97.628	-122.9900
1340.000000	97.831	-122.3747
1360.000000	98.010	-121.8252
1380.000000	98.223	-121.1569
1400.000000	98.409	-120.6973
1430.000000	98.706	-119.8792
1450.000000	98.918	-119.4906
1475.000000	99.163	-118.9222
1500.000000	99.425	-118.3068
1525.000000	99.698	-117.8108
1550.000000	99.978	-117.3781
1575.000000	100.272	-116.8230
1600.000000	100.547	-116.4236
1625.000000	100.843	-116.0576
1650.000000	101.150	-115.7616
1675.000000	101.462	-115.4449
1700.000000	101.787	-115.2966
1725.000000	102.116	-115.2532
1750.000000	102.455	-115.1273
1775.000000	102.784	-115.2355
1800.000000	103.144	-115.3859
1825.000000	103.501	-115.6751
1850.000000	103.876	-116.0989
1875.000000	104.240	-116.5160
1900.000000	104.626	-117.2121
1925.000000	105.012	-118.0646
1950.000000	105.401	-119.0345
1975.000000	105.792	-120.1805
2000.000000	106.179	-121.5065
2030.000000	106.641	-123.4838
2060.000000	107.084	-125.7387
2090.000000	107.509	-128.2891
2120.000000	107.903	-131.2347
2140.000000	108.144	-133.3851
2180.000000	108.548	-138.0535
2200.000000	108.716	-140.5414
2240.000000	108.950	-145.7866
2270.000000	109.038	-149.8206
2300.000000	109.050	-153.7806
2330.000000	108.989	-157.6503
2360.000000	108.856	-161.3486
2400.000000	108.602	-165.7845
2430.000000	108.354	-168.7627
2470.000000	107.982	-172.1934
2500.000000	107.680	-174.3342
2540.000000	107.266	-176.8057
2580.000000	106.851	-178.6524
2620.000000	106.440	179.8376
2650.000000	106.142	179.0010
2690.000000	105.744	178.2095
2720.000000	105.478	177.8625
2760.000000	105.123	177.4886
2800.000000	104.800	177.4166
2850.000000	104.417	177.5968
2900.000000	104.073	178.0236
2950.000000	103.761	178.6763
3000.000000	103.490	179.4170
3040.000000	103.289	-179.8846
3070.000000	103.150	-179.2126
3110.000000	102.987	-178.3145
3150.000000	102.836	-177.3339
3200.000000	102.650	-176.1699
3250.000000	102.479	-174.8396
3300.000000	102.336	-173.4285
3350.000000	102.215	-172.0018
3400.000000	102.131	-170.5561
3450.000000	102.065	-169.1041
3500.000000	102.025	-167.5234
3550.000000	102.007	-166.0789
3600.000000	102.025	-164.6315
3650.000000	102.068	-163.0181
3700.000000	102.130	-161.6227
3750.000000	102.204	-160.1880
3820.000000	102.387	-158.2216
3870.000000	102.529	-156.8563
3950.000000	102.823	-154.8376
4000.000000	103.055	-153.6536
4060.000000	103.401	-152.3397
4120.000000	103.790	-151.2724
4180.000000	104.236	-150.3782
4250.000000	104.830	-149.7597
4310.000000	105.398	-149.5151
4370.000000	106.015	-149.8822
4440.000000	106.804	-151.0554
4500.000000	107.542	-152.9997
4550.000000	108.179	-155.3428
4620.000000	109.058	-160.1222
4680.000000	109.740	-165.8440
4750.000000	110.334	-174.5327
4820.000000	110.525	175.2901
4870.000000	110.361	167.7225
4940.000000	109.717	158.0334
5000.000000	108.857	151.3251
5080.000000	107.396	145.4772
5150.000000	106.002	144.5592
5220.000000	105.392	148.5193
5300.000000	105.307	145.6645
5380.000000	104.443	142.1481
5450.000000	103.560	140.8760
5520.000000	102.714	140.9072
5600.000000	101.833	141.8077
5700.000000	100.748	144.1863
5800.000000	100.194	151.0560
5900.000000	99.788	151.1328
6000.000000	99.205	153.8987
6080.000000	98.840	156.4827
6150.000000	98.565	158.7285
6220.000000	98.331	161.1848
6300.000000	98.135	163.9938
6400.000000	98.014	167.3840
6500.000000	97.907	170.6131
6600.000000	97.921	173.9293
6700.000000	97.989	176.6915
6800.000000	98.072	179.4625
6900.000000	98.219	-177.7071
7000.000000	98.455	-174.9787
7100.000000	98.669	-172.3284
7200.000000	99.047	-169.8690
7300.000000	99.504	-167.4938
7400.000000	100.150	-165.5092
7500.000000	100.917	-164.4545
7620.000000	102.108	-164.6650
7750.000000	103.556	-169.0622
7880.000000	104.884	-178.9756
8000.000000	105.423	166.9729
8120.000000	104.803	151.8469
8250.000000	103.131	139.7221
8380.000000	101.132	133.5754
8500.000000	99.361	131.6171
8620.000000	97.797	132.5642
8750.000000	96.369	135.6401
8850.000000	95.418	138.2115
9000.000000	94.221	142.7157
9120.000000	93.415	146.8885
9250.000000	92.671	150.8746
9380.000000	91.999	155.9524
9500.000000	91.432	160.6710
9620.000000	90.910	165.4108
9750.000000	90.538	170.8549
9880.000000	90.234	176.4931
10000.000000	89.990	-178.4566
10150.000000	89.868	-171.8876
10300.000000	89.817	-165.7519
10440.000000	89.955	-159.6997
10600.000000	90.216	-152.7885
10750.000000	90.592	-146.5964
10900.000000	91.231	-141.1866
11060.000000	92.047	-135.0361
11200.000000	92.980	-130.8793
11380.000000	94.571	-126.3577
11500.000000	95.986	-125.1385
11720.000000	99.314	-129.9439
11800.000000	100.737	-136.2688
12060.000000	102.284	179.0731
12200.000000	99.893	160.9014
12410.000000	96.143	152.9832
12500.000000	94.817	152.4366
12650.000000	92.892	154.6414
12800.000000	91.253	158.3529
13150.000000	88.664	172.5470
13200.000000	88.447	173.6589
13400.000000	87.670	-178.2736
13600.000000	87.110	-169.9932
13800.000000	86.810	-162.9354
14000.000000	86.814	-154.7276
14300.000000	87.332	-147.0430
14500.000000	86.821	-155.1166
14750.000000	86.224	-127.9574
15000.000000	87.960	-115.8609
15250.000000	90.316	-109.5175
15500.000000	93.519	-109.1820
15750.000000	97.548	-124.1813
16000.000000	98.396	-163.6896
16250.000000	95.471	174.8196
16500.000000	92.969	171.0433
16750.000000	91.633	172.9463
17000.000000	91.231	176.5768
17250.000000	91.726	178.2581
17500.000000	93.147	173.2798
17750.000000	94.609	153.5533
18000.000000	92.890	121.8817
18250.000000	88.389	106.5446
18500.000000	84.253	105.8335
18750.000000	80.996	111.7449
19000.000000	78.083	122.4930
19250.000000	75.444	133.8060
19500.000000	73.671	147.3956
19750.000000	72.133	156.3171
20000.000000	70.449	168.7930
