* Measurement data measured by REW V5.31.1
* Source: EXCL: Micr√≥fono (Realtek(R) Audio), MICROPHONE (Volumen general), L, volume: 0,900. Timing signal peak level -22,4 dBFS, measurement signal peak level -22,3 dBFS
* Format: 512k Log Swept Sine, 1 sweep at -12,0 dBFS using an acoustic timing reference
* Dated: 26/07/2024 01:54:40 AM
* REW Settings:
*  C-weighting compensation: Off
*  Target level: 75.0 dB
* Note: Delay -0,0135 ms (-4,6 mm, -0,18 in) using estimated IR delay relative to Acoustic reference played from SPEAKER L with no timing offset
* Measurement: L 49
* Smoothing: None
* Frequency Step: 1/48 octave
* Start Frequency: 20.000 Hz
*
* Freq(Hz)	SPL(dB)	Phase(degrees)
20.000000	99.062	179.7283
20.299999	99.038	179.1612
20.600000	99.017	178.5444
20.900000	98.990	177.8863
21.200001	98.953	177.2223
21.400000	98.923	176.8000
21.799999	98.857	176.0418
22.000000	98.825	175.7080
22.400000	98.767	175.0986
22.700001	98.731	174.6481
23.000000	98.697	174.1771
23.299999	98.660	173.6876
23.600000	98.617	173.2047
24.000000	98.554	172.6287
24.299999	98.508	172.2635
24.700001	98.460	171.8280
25.000000	98.434	171.4813
25.400000	98.406	170.9243
25.799999	98.369	170.2605
26.200001	98.312	169.5784
26.500000	98.259	169.1200
26.900000	98.185	168.6149
27.200001	98.136	168.2960
27.600000	98.081	167.8780
28.000000	98.030	167.4144
28.500000	97.959	166.7947
29.000000	97.877	166.2540
29.500000	97.803	165.8288
30.000000	97.749	165.3917
30.400000	97.709	164.9557
30.700001	97.672	164.5908
31.100000	97.611	164.1212
31.500000	97.541	163.7473
32.000000	97.464	163.4208
32.500000	97.411	163.1121
33.000000	97.367	162.6777
33.500000	97.309	162.1529
34.000000	97.231	161.6954
34.500000	97.155	161.3788
35.000000	97.097	161.1118
35.500000	97.051	160.7723
36.000000	96.999	160.3578
36.500000	96.937	159.9583
37.000000	96.876	159.6155
37.500000	96.823	159.2711
38.200001	96.745	158.6975
38.700001	96.675	158.3023
39.500000	96.561	157.8727
40.000000	96.506	157.6411
40.599998	96.446	157.2761
41.200001	96.371	156.8909
41.799999	96.290	156.5993
42.500000	96.208	156.3213
43.099998	96.139	156.0524
43.700001	96.063	155.8089
44.400002	95.981	155.5986
45.000000	95.919	155.3961
45.500000	95.864	155.1972
46.200001	95.781	154.9608
46.799999	95.716	154.8135
47.500000	95.653	154.6119
48.200001	95.593	154.3371
48.700001	95.549	154.0900
49.400002	95.471	153.6834
50.000000	95.382	153.4225
50.799999	95.276	153.3864
51.500000	95.230	153.3394
52.200001	95.180	153.0287
53.000000	95.083	152.7575
53.799999	95.011	152.6978
54.500000	94.965	152.4635
55.200001	94.891	152.1418
56.000000	94.790	151.9503
57.000000	94.679	151.8629
58.000000	94.602	151.8462
59.000000	94.540	151.4976
60.000000	94.410	151.2475
60.799999	94.339	151.4319
61.500000	94.322	151.4088
62.200001	94.287	151.0838
63.000000	94.194	150.7613
64.000000	94.082	150.7039
65.000000	93.983	150.5146
66.000000	93.849	150.6132
67.000000	93.813	150.8993
68.000000	93.785	150.4526
69.000000	93.673	150.1257
70.000000	93.579	150.0958
71.000000	93.495	150.0687
72.000000	93.406	150.0069
73.000000	93.301	150.0945
74.000000	93.232	150.1624
75.000000	93.135	149.9606
76.199997	93.005	150.0409
77.500000	92.921	150.0127
78.800003	92.828	149.9111
80.000000	92.757	149.9691
81.199997	92.704	150.1096
82.500000	92.668	149.7824
83.800003	92.418	149.7329
85.000000	92.350	150.5828
86.199997	92.221	150.4055
87.500000	92.126	150.7652
88.500000	91.991	150.5057
90.000000	91.850	150.9790
91.199997	91.603	151.1772
92.500000	91.475	153.1351
93.800003	91.422	154.4623
95.000000	91.428	155.9677
96.199997	91.472	157.0591
97.500000	91.573	158.0590
98.800003	91.679	158.5978
100.000000	91.870	159.0084
101.500000	92.102	158.0673
103.000000	92.130	156.2502
104.400002	92.021	156.1020
106.000000	91.924	155.7036
107.500000	91.962	155.4333
109.000000	91.802	155.8221
110.599998	91.871	155.0939
112.000000	91.838	155.6517
113.800003	91.792	154.9468
115.000000	91.751	154.7949
117.199997	91.578	155.0067
118.000000	91.537	154.7892
120.599998	91.434	154.3655
122.000000	91.419	154.4346
124.099998	91.298	154.3004
125.000000	91.280	154.4644
126.500000	91.217	154.6983
128.000000	91.145	155.0433
131.500000	91.012	154.5861
132.000000	90.958	154.6626
134.000000	90.874	155.4507
136.000000	90.867	155.8300
138.000000	90.753	155.7697
140.000000	90.715	155.8925
143.000000	90.620	156.2854
145.000000	90.523	156.4327
147.500000	90.495	156.4402
150.000000	90.433	156.7033
152.500000	90.349	156.8137
155.000000	90.300	157.3552
157.500000	90.302	157.3804
160.000000	90.218	158.1450
162.500000	90.038	158.4860
165.000000	90.107	158.6933
167.500000	89.927	158.9052
170.000000	89.897	159.2581
172.500000	89.888	159.4717
175.000000	89.817	159.4152
177.500000	89.801	160.2924
180.000000	89.719	160.1683
182.500000	89.646	161.0745
185.000000	89.700	161.1042
187.500000	89.629	161.2800
190.000000	89.559	161.3737
192.500000	89.574	161.5205
195.000000	89.494	161.2824
197.500000	89.505	161.5651
200.000000	89.447	162.0389
203.000000	89.342	162.0946
206.000000	89.333	162.4840
209.000000	89.313	162.6415
212.000000	89.230	162.8535
214.000000	89.248	162.9320
218.000000	89.167	163.1131
220.000000	89.095	163.2887
224.000000	89.063	163.8226
227.000000	89.016	164.5278
230.000000	89.002	164.9263
233.000000	88.912	165.3425
236.000000	88.932	165.1309
240.000000	88.941	165.8513
243.000000	88.925	166.4962
247.000000	88.938	166.6056
250.000000	88.853	166.9037
254.000000	88.910	167.4899
258.000000	88.862	166.9610
262.000000	88.790	167.4999
265.000000	88.805	167.6439
269.000000	88.807	168.1862
272.000000	88.801	168.5474
276.000000	88.706	169.2742
280.000000	88.616	169.0597
285.000000	88.627	169.5593
290.000000	88.585	170.1576
295.000000	88.470	170.7108
300.000000	88.493	171.1077
304.000000	88.403	171.1444
307.000000	88.411	171.6399
311.000000	88.434	172.1663
315.000000	88.306	172.7461
320.000000	88.372	172.2409
325.000000	88.269	172.4454
330.000000	88.376	172.9325
335.000000	88.217	173.1154
340.000000	88.225	173.7692
345.000000	88.289	174.4444
350.000000	88.234	175.0323
355.000000	88.258	175.3587
360.000000	88.222	176.6202
365.000000	88.260	176.2190
370.000000	88.063	176.5314
375.000000	88.146	177.1806
382.000000	88.031	177.6486
387.000000	88.188	178.1091
395.000000	88.131	178.5767
400.000000	88.157	179.1678
406.000000	88.022	178.1248
412.000000	87.931	179.9753
418.000000	87.961	179.5430
425.000000	87.981	-179.3803
431.000000	87.999	-178.8805
437.000000	87.946	-178.5729
444.000000	87.992	-177.6511
450.000000	87.944	-177.2643
455.000000	87.953	-177.1248
462.000000	87.955	-176.1718
468.000000	88.001	-175.8219
475.000000	87.924	-175.1945
482.000000	87.965	-175.4172
487.000000	87.891	-175.5685
494.000000	87.941	-174.2297
500.000000	87.851	-173.8142
508.000000	87.943	-173.8393
515.000000	87.957	-173.0072
522.000000	87.934	-172.5342
530.000000	87.872	-171.6343
538.000000	87.974	-171.4616
545.000000	87.893	-170.7832
552.000000	87.964	-170.1047
560.000000	87.900	-170.0924
570.000000	87.974	-169.4690
580.000000	87.947	-168.2604
590.000000	88.046	-167.8123
600.000000	87.887	-167.3573
608.000000	88.000	-166.9713
615.000000	87.963	-165.4126
622.000000	88.001	-165.3467
630.000000	88.046	-164.1156
640.000000	88.034	-163.9267
650.000000	88.119	-163.4900
660.000000	88.097	-162.5840
670.000000	88.098	-162.4465
680.000000	88.210	-161.7935
690.000000	88.186	-161.2407
700.000000	88.219	-160.8766
710.000000	88.225	-159.9853
720.000000	88.299	-159.0576
730.000000	88.283	-158.5635
740.000000	88.365	-158.3447
750.000000	88.334	-157.3652
762.000000	88.488	-156.5587
775.000000	88.517	-155.8549
788.000000	88.585	-154.7199
800.000000	88.600	-154.0880
812.000000	88.683	-153.5292
825.000000	88.712	-152.5372
838.000000	88.833	-152.2936
850.000000	88.886	-151.3680
862.000000	88.933	-150.4952
875.000000	88.990	-149.8056
885.000000	88.998	-149.4080
900.000000	89.170	-148.4408
912.000000	89.331	-148.2047
925.000000	89.356	-147.3105
938.000000	89.382	-147.0131
950.000000	89.562	-146.3071
962.000000	89.654	-145.4961
975.000000	89.702	-144.9612
988.000000	89.791	-144.6658
1000.000000	89.848	-144.6330
1015.000000	89.991	-143.9204
1030.000000	90.050	-143.1392
1044.000000	90.162	-142.8969
1060.000000	90.264	-141.8473
1075.000000	90.281	-141.9584
1090.000000	90.414	-141.5068
1106.000000	90.514	-140.9115
1120.000000	90.621	-140.6514
1138.000000	90.802	-140.3806
1150.000000	90.828	-139.8695
1172.000000	91.027	-139.7081
1180.000000	91.091	-139.3475
1206.000000	91.263	-138.6619
1220.000000	91.372	-138.2282
1241.000000	91.505	-137.9979
1250.000000	91.585	-137.7477
1265.000000	91.717	-137.5742
1280.000000	91.840	-137.4464
1315.000000	92.054	-137.0656
1320.000000	92.085	-136.7568
1340.000000	92.235	-136.5007
1360.000000	92.400	-136.8366
1380.000000	92.584	-136.0103
1400.000000	92.678	-136.3310
1430.000000	92.916	-136.0221
1450.000000	93.078	-135.9722
1475.000000	93.271	-136.0555
1500.000000	93.489	-135.8497
1525.000000	93.753	-136.0242
1550.000000	93.934	-136.4341
1575.000000	94.106	-137.0184
1600.000000	94.301	-137.6142
1625.000000	94.457	-138.9583
1650.000000	94.540	-140.3107
1675.000000	94.542	-141.6056
1700.000000	94.392	-142.6017
1725.000000	94.155	-142.3638
1750.000000	94.088	-140.9967
1775.000000	94.122	-139.4075
1800.000000	94.203	-138.1523
1825.000000	94.394	-136.9316
1850.000000	94.605	-135.6989
1875.000000	94.887	-135.4254
1900.000000	95.096	-134.5291
1925.000000	95.335	-134.7247
1950.000000	95.625	-134.6980
1975.000000	95.857	-134.7741
2000.000000	96.092	-135.0462
2030.000000	96.364	-135.3753
2060.000000	96.609	-136.0273
2090.000000	96.862	-136.6395
2120.000000	97.119	-137.2493
2140.000000	97.252	-137.8479
2180.000000	97.538	-139.0385
2200.000000	97.668	-139.7650
2240.000000	97.970	-141.0079
2270.000000	98.111	-142.1549
2300.000000	98.279	-142.9786
2330.000000	98.416	-144.1657
2360.000000	98.563	-145.1926
2400.000000	98.792	-146.5532
2430.000000	98.914	-147.9584
2470.000000	99.051	-149.6046
2500.000000	99.134	-150.6548
2540.000000	99.193	-151.5074
2580.000000	99.432	-152.2558
2620.000000	99.808	-153.2386
2650.000000	100.094	-154.7068
2690.000000	100.410	-158.1567
2720.000000	100.495	-161.0154
2760.000000	100.551	-164.3825
2800.000000	100.510	-167.6352
2850.000000	100.464	-171.5530
2900.000000	100.398	-175.3897
2950.000000	100.254	179.8842
3000.000000	99.800	174.0571
3040.000000	99.047	169.4545
3070.000000	98.253	167.7740
3110.000000	97.198	168.7459
3150.000000	96.530	172.9007
3200.000000	96.204	177.4053
3250.000000	96.157	-179.7208
3300.000000	96.106	-177.8724
3350.000000	96.089	-176.4406
3400.000000	96.062	-175.2962
3450.000000	96.043	-174.9036
3500.000000	96.013	-174.3205
3550.000000	96.018	-174.3307
3600.000000	95.973	-173.9094
3650.000000	95.881	-173.4512
3700.000000	95.841	-173.0771
3750.000000	95.822	-172.8019
3820.000000	95.801	-172.3811
3870.000000	95.697	-172.1469
3950.000000	95.567	-171.5205
4000.000000	95.515	-170.6457
4060.000000	95.587	-169.9647
4120.000000	95.645	-169.0193
4180.000000	95.766	-168.3479
4250.000000	95.910	-167.4979
4310.000000	96.029	-167.7560
4370.000000	96.112	-168.0079
4440.000000	96.234	-167.2760
4500.000000	96.576	-166.7143
4550.000000	96.827	-167.6870
4620.000000	97.141	-169.5630
4680.000000	97.336	-172.1345
4750.000000	97.374	-175.9050
4820.000000	97.082	179.4511
4870.000000	96.543	177.1199
4940.000000	95.699	177.4760
5000.000000	95.316	-179.4930
5080.000000	95.174	-175.5817
5150.000000	95.407	-173.3639
5220.000000	95.710	-172.4973
5300.000000	96.093	-173.9830
5380.000000	96.176	-176.2343
5450.000000	96.108	-178.9327
5520.000000	95.927	178.8364
5600.000000	95.453	176.6995
5700.000000	94.665	177.9618
5800.000000	94.669	-179.1479
5900.000000	94.590	179.3646
6000.000000	94.412	178.4919
6080.000000	93.988	177.8505
6150.000000	93.744	178.0754
6220.000000	93.433	178.4783
6300.000000	93.103	178.9323
6400.000000	92.677	179.2606
6500.000000	91.970	179.8352
6600.000000	91.067	-174.1267
6700.000000	90.875	-166.5702
6800.000000	91.098	-161.0828
6900.000000	91.294	-156.1705
7000.000000	91.735	-151.9774
7100.000000	91.969	-148.5874
7200.000000	92.189	-144.3099
7300.000000	92.855	-138.7249
7400.000000	93.634	-135.5440
7500.000000	94.476	-132.6160
7620.000000	95.774	-129.0780
7750.000000	97.651	-129.5251
7880.000000	99.553	-135.2518
8000.000000	100.856	-146.0045
8120.000000	101.040	-160.3611
8250.000000	99.948	-169.7661
8380.000000	99.132	-172.6797
8500.000000	98.658	-174.5803
8620.000000	98.310	-175.8940
8750.000000	98.169	-177.3313
8850.000000	98.053	-179.9855
9000.000000	97.361	177.1471
9120.000000	96.952	177.5337
9250.000000	96.700	178.0425
9380.000000	96.654	178.5792
9500.000000	96.873	178.8515
9620.000000	97.047	176.8010
9750.000000	97.199	173.6019
9880.000000	97.204	169.0151
10000.000000	96.946	164.4193
10150.000000	96.345	159.0253
10300.000000	95.439	156.2530
10440.000000	94.794	155.4088
10600.000000	94.198	154.2435
10750.000000	93.603	153.1385
10900.000000	93.064	151.8580
11060.000000	92.458	152.1979
11200.000000	91.924	151.6348
11380.000000	91.244	149.3379
11500.000000	90.660	148.0996
11720.000000	89.210	147.4891
11800.000000	88.739	148.0416
12060.000000	87.394	153.8562
12200.000000	86.671	157.0753
12410.000000	85.888	160.1519
12500.000000	85.712	163.3065
12650.000000	85.354	167.8510
12800.000000	84.971	171.1687
13150.000000	84.215	179.4054
13200.000000	84.248	-179.8519
13400.000000	83.804	-175.4052
13600.000000	83.389	-167.8283
13800.000000	83.319	-162.5340
14000.000000	83.311	-154.4178
14300.000000	83.820	-144.7315
14500.000000	85.147	-136.1440
14750.000000	86.205	-135.4283
15000.000000	87.264	-133.1248
15250.000000	88.841	-131.8890
15500.000000	90.758	-135.1601
15750.000000	92.770	-147.4387
16000.000000	93.650	-166.6150
16250.000000	93.083	173.7838
16500.000000	91.848	161.0585
16750.000000	90.474	150.6705
17000.000000	88.707	141.7461
17250.000000	86.420	137.5713
17500.000000	84.695	139.0665
17750.000000	83.326	143.1337
18000.000000	82.286	146.6449
18250.000000	80.930	148.8088
18500.000000	80.303	151.7408
18750.000000	79.449	155.5144
19000.000000	78.390	159.3089
19250.000000	77.614	163.9070
19500.000000	77.232	171.8474
19750.000000	76.932	170.2774
