* Measurement data measured by REW V5.31.1
* Source: Frequency response averaged data
* Format: Averaged data produced from the rms magnitudes of L 234, L 235, L 236, L 237, L 238
* Dated: 3/08/2024 03:57:29 AM
* REW Settings:
*  C-weighting compensation: Off
*  Target level: 75.0 dB
* Note: Averaged data produced from the rms magnitudes of L 234, L 235, L 236, L 237, L 238
* Measurement: L AVG
* Smoothing: None
* Frequency Step: 1/48 octave
* Start Frequency: 20.000 Hz
*
* Freq(Hz)	SPL(dB)
20.000000	69.551
20.299999	69.769
20.600000	70.067
20.900000	70.401
21.200001	70.712
21.400000	70.884
21.799999	71.131
22.000000	71.218
22.400000	71.364
22.700001	71.501
23.000000	71.684
23.299999	71.904
23.600000	72.132
24.000000	72.397
24.299999	72.552
24.700001	72.724
25.000000	72.866
25.400000	73.112
25.799999	73.417
26.200001	73.724
26.500000	73.917
26.900000	74.113
27.200001	74.229
27.600000	74.394
28.000000	74.616
28.500000	74.975
29.000000	75.329
29.500000	75.590
30.000000	75.761
30.400000	75.890
30.700001	76.015
31.100000	76.236
31.500000	76.494
32.000000	76.799
32.500000	77.026
33.000000	77.189
33.500000	77.350
34.000000	77.560
34.500000	77.814
35.000000	78.067
35.500000	78.287
36.000000	78.472
36.500000	78.641
37.000000	78.816
37.500000	79.005
38.200001	79.282
38.700001	79.471
39.500000	79.742
40.000000	79.893
40.599998	80.069
41.200001	80.281
41.799999	80.566
42.500000	80.908
43.099998	81.095
43.700001	81.197
44.400002	81.366
45.000000	81.583
45.500000	81.745
46.200001	81.906
46.799999	82.050
47.500000	82.279
48.200001	82.499
48.700001	82.620
49.400002	82.770
50.000000	82.921
50.799999	83.154
51.500000	83.355
52.200001	83.540
53.000000	83.735
53.799999	83.914
54.500000	84.059
55.200001	84.189
56.000000	84.354
57.000000	84.603
58.000000	84.718
59.000000	84.987
60.000000	85.335
60.799999	85.403
61.500000	85.493
62.200001	85.660
63.000000	85.784
64.000000	85.902
65.000000	86.094
66.000000	86.253
67.000000	86.395
68.000000	86.514
69.000000	86.648
70.000000	86.809
71.000000	86.957
72.000000	87.091
73.000000	87.292
74.000000	87.474
75.000000	87.603
76.199997	87.756
77.500000	87.834
78.800003	88.009
80.000000	88.131
81.199997	88.270
82.500000	88.442
83.800003	88.605
85.000000	88.783
86.199997	88.930
87.500000	89.078
88.500000	89.188
90.000000	89.348
91.199997	89.478
92.500000	89.614
93.800003	89.759
95.000000	89.863
96.199997	89.999
97.500000	90.130
98.800003	90.239
100.000000	90.354
101.500000	90.469
103.000000	90.600
104.400002	90.737
106.000000	90.837
107.500000	90.958
109.000000	91.067
110.599998	91.182
112.000000	91.295
113.800003	91.420
115.000000	91.506
117.199997	91.651
118.000000	91.575
120.599998	91.992
122.000000	91.967
124.099998	92.055
125.000000	92.125
126.500000	92.160
128.000000	92.264
131.500000	92.414
132.000000	92.424
134.000000	92.514
136.000000	92.589
138.000000	92.693
140.000000	92.778
143.000000	92.916
145.000000	93.006
147.500000	93.098
150.000000	93.182
152.500000	93.287
155.000000	93.325
157.500000	93.436
160.000000	93.511
162.500000	93.600
165.000000	93.652
167.500000	93.713
170.000000	93.807
172.500000	93.829
175.000000	93.903
177.500000	93.960
180.000000	93.991
182.500000	94.049
185.000000	94.094
187.500000	94.156
190.000000	94.206
192.500000	94.247
195.000000	94.312
197.500000	94.352
200.000000	94.404
203.000000	94.448
206.000000	94.499
209.000000	94.582
212.000000	94.622
214.000000	94.670
218.000000	94.748
220.000000	94.803
224.000000	94.846
227.000000	94.900
230.000000	94.979
233.000000	95.043
236.000000	95.086
240.000000	95.188
243.000000	95.220
247.000000	95.328
250.000000	95.346
254.000000	95.417
258.000000	95.455
262.000000	95.536
265.000000	95.544
269.000000	95.616
272.000000	95.643
276.000000	95.692
280.000000	95.753
285.000000	95.823
290.000000	95.880
295.000000	95.949
300.000000	96.011
304.000000	96.052
307.000000	96.073
311.000000	96.108
315.000000	96.158
320.000000	96.211
325.000000	96.219
330.000000	96.229
335.000000	96.250
340.000000	96.279
345.000000	96.329
350.000000	96.457
355.000000	96.569
360.000000	96.692
365.000000	96.770
370.000000	96.850
375.000000	96.910
382.000000	96.948
387.000000	96.972
395.000000	97.015
400.000000	97.010
406.000000	97.041
412.000000	96.948
418.000000	96.935
425.000000	96.936
431.000000	96.969
437.000000	96.961
444.000000	96.959
450.000000	96.907
455.000000	96.899
462.000000	96.945
468.000000	96.902
475.000000	96.845
482.000000	96.914
487.000000	96.915
494.000000	96.952
500.000000	96.950
508.000000	96.932
515.000000	97.001
522.000000	97.000
530.000000	96.978
538.000000	97.064
545.000000	97.096
552.000000	97.068
560.000000	97.061
570.000000	97.103
580.000000	97.145
590.000000	97.146
600.000000	97.101
608.000000	97.120
615.000000	97.104
622.000000	97.120
630.000000	97.141
640.000000	97.063
650.000000	97.024
660.000000	96.934
670.000000	96.892
680.000000	96.828
690.000000	96.827
700.000000	96.792
710.000000	96.555
720.000000	96.692
730.000000	96.697
740.000000	96.593
750.000000	96.566
762.000000	96.512
775.000000	96.438
788.000000	96.400
800.000000	96.273
812.000000	96.257
825.000000	96.225
838.000000	96.297
850.000000	96.248
862.000000	96.251
875.000000	96.186
885.000000	96.043
900.000000	95.990
912.000000	96.054
925.000000	96.011
938.000000	95.967
950.000000	95.925
962.000000	95.815
975.000000	95.777
988.000000	95.852
1000.000000	95.962
1015.000000	95.919
1030.000000	96.047
1044.000000	96.049
1060.000000	95.975
1075.000000	95.845
1090.000000	95.727
1106.000000	95.773
1120.000000	95.595
1138.000000	95.766
1150.000000	95.759
1172.000000	95.617
1180.000000	95.725
1206.000000	95.845
1220.000000	95.817
1241.000000	95.790
1250.000000	95.805
1265.000000	95.898
1280.000000	95.756
1315.000000	95.939
1320.000000	95.945
1340.000000	95.941
1360.000000	96.049
1380.000000	95.958
1400.000000	96.137
1430.000000	96.183
1450.000000	96.113
1475.000000	96.326
1500.000000	96.345
1525.000000	96.337
1550.000000	96.226
1575.000000	96.343
1600.000000	96.413
1625.000000	96.311
1650.000000	96.612
1675.000000	96.777
1700.000000	96.728
1725.000000	96.782
1750.000000	97.138
1775.000000	97.277
1800.000000	97.449
1825.000000	97.873
1850.000000	97.938
1875.000000	98.003
1900.000000	98.401
1925.000000	98.474
1950.000000	98.690
1975.000000	98.983
2000.000000	99.198
2030.000000	99.299
2060.000000	99.628
2090.000000	99.887
2120.000000	100.334
2140.000000	100.555
2180.000000	101.134
2200.000000	101.398
2240.000000	101.787
2270.000000	102.321
2300.000000	102.477
2330.000000	103.178
2360.000000	103.298
2400.000000	104.150
2430.000000	104.793
2470.000000	105.467
2500.000000	105.860
2540.000000	106.289
2580.000000	107.027
2620.000000	107.368
2650.000000	107.696
2690.000000	108.355
2720.000000	108.725
2760.000000	109.186
2800.000000	109.744
2850.000000	110.350
2900.000000	111.048
2950.000000	111.524
3000.000000	111.896
3040.000000	111.901
3070.000000	112.106
3110.000000	112.018
3150.000000	112.432
3200.000000	112.313
3250.000000	112.002
3300.000000	111.619
3350.000000	111.003
3400.000000	110.209
3450.000000	109.112
3500.000000	108.557
3550.000000	108.452
3600.000000	107.910
3650.000000	107.715
3700.000000	107.435
3750.000000	107.427
3820.000000	107.267
3870.000000	106.931
3950.000000	106.022
4000.000000	105.367
4060.000000	105.295
4120.000000	104.993
4180.000000	105.080
4250.000000	105.911
4310.000000	106.129
4370.000000	105.815
4440.000000	106.580
4500.000000	107.097
4550.000000	107.919
4620.000000	108.221
4680.000000	108.379
4750.000000	108.576
4820.000000	108.629
4870.000000	108.737
4940.000000	109.080
5000.000000	109.383
5080.000000	110.368
5150.000000	110.785
5220.000000	111.525
5300.000000	112.730
5380.000000	113.775
5450.000000	114.369
5520.000000	113.940
5600.000000	112.733
5700.000000	110.512
5800.000000	107.962
5900.000000	105.743
6000.000000	103.480
6080.000000	101.660
6150.000000	99.457
6220.000000	96.466
6300.000000	91.186
6400.000000	86.571
6500.000000	90.908
6600.000000	94.164
6700.000000	96.314
6800.000000	98.425
6900.000000	100.761
7000.000000	102.837
7100.000000	104.545
7200.000000	105.795
7300.000000	106.586
7400.000000	107.072
7500.000000	107.386
7620.000000	107.860
7750.000000	108.366
7880.000000	108.672
8000.000000	108.447
8120.000000	107.665
8250.000000	106.154
8380.000000	103.763
8500.000000	101.484
8620.000000	99.958
8750.000000	99.501
8850.000000	99.630
9000.000000	99.959
9120.000000	99.508
9250.000000	97.338
9380.000000	97.527
9500.000000	97.600
9620.000000	96.440
9750.000000	94.489
9880.000000	92.921
10000.000000	92.244
10150.000000	91.440
10300.000000	91.511
10440.000000	92.642
10600.000000	94.691
10750.000000	97.067
10900.000000	99.408
11060.000000	101.581
11200.000000	102.416
11380.000000	101.830
11500.000000	100.930
11720.000000	99.838
11800.000000	99.509
12060.000000	97.828
12200.000000	96.810
12410.000000	96.028
12500.000000	96.072
12650.000000	96.649
12800.000000	98.066
13150.000000	99.272
13200.000000	98.995
13400.000000	98.457
13600.000000	98.211
13800.000000	98.080
14000.000000	98.168
14300.000000	98.591
14500.000000	98.917
14750.000000	99.368
15000.000000	99.526
15250.000000	97.335
15500.000000	92.759
15750.000000	88.022
16000.000000	86.459
16250.000000	87.685
16500.000000	89.147
16750.000000	91.098
17000.000000	92.601
17250.000000	94.649
17500.000000	97.032
17750.000000	96.817
18000.000000	93.890
18250.000000	91.715
18500.000000	91.771
18750.000000	91.653
19000.000000	91.505
19250.000000	92.826
19500.000000	93.780
19750.000000	93.992
20000.000000	94.914
