* Measurement data measured by REW V5.31.1
* Source: Frequency response averaged data
* Format: Averaged data produced from the rms magnitudes of L 270, L 271, L 272, L 273, L 274
* Dated: 4/08/2024 01:19:13 AM
* REW Settings:
*  C-weighting compensation: Off
*  Target level: 75.0 dB
* Note: Averaged data produced from the rms magnitudes of L 270, L 271, L 272, L 273, L 274
* Measurement: L AVG
* Smoothing: None
* Frequency Step: 1/48 octave
* Start Frequency: 20.000 Hz
*
* Freq(Hz)	SPL(dB)
20.000000	78.471
20.299999	78.716
20.600000	78.940
20.900000	79.143
21.200001	79.334
21.400000	79.459
21.799999	79.713
22.000000	79.842
22.400000	80.100
22.700001	80.287
23.000000	80.465
23.299999	80.635
23.600000	80.803
24.000000	81.032
24.299999	81.209
24.700001	81.451
25.000000	81.630
25.400000	81.862
25.799999	82.084
26.200001	82.301
26.500000	82.462
26.900000	82.672
27.200001	82.821
27.600000	83.008
28.000000	83.182
28.500000	83.393
29.000000	83.608
29.500000	83.827
30.000000	84.042
30.400000	84.209
30.700001	84.333
31.100000	84.499
31.500000	84.665
32.000000	84.866
32.500000	85.052
33.000000	85.220
33.500000	85.380
34.000000	85.546
34.500000	85.724
35.000000	85.903
35.500000	86.069
36.000000	86.222
36.500000	86.368
37.000000	86.518
37.500000	86.666
38.200001	86.863
38.700001	87.000
39.500000	87.235
40.000000	87.382
40.599998	87.541
41.200001	87.680
41.799999	87.805
42.500000	87.939
43.099998	88.056
43.700001	88.183
44.400002	88.331
45.000000	88.437
45.500000	88.520
46.200001	88.656
46.799999	88.789
47.500000	88.926
48.200001	89.032
48.700001	89.104
49.400002	89.209
50.000000	89.293
50.799999	89.377
51.500000	89.444
52.200001	89.526
53.000000	89.629
53.799999	89.726
54.500000	89.822
55.200001	89.929
56.000000	90.045
57.000000	90.190
58.000000	90.333
59.000000	90.472
60.000000	90.611
60.799999	90.687
61.500000	90.758
62.200001	90.842
63.000000	90.924
64.000000	91.028
65.000000	91.124
66.000000	91.204
67.000000	91.340
68.000000	91.447
69.000000	91.552
70.000000	91.663
71.000000	91.761
72.000000	91.853
73.000000	91.924
74.000000	91.994
75.000000	92.049
76.199997	92.128
77.500000	92.230
78.800003	92.317
80.000000	92.388
81.199997	92.453
82.500000	92.513
83.800003	92.579
85.000000	92.634
86.199997	92.690
87.500000	92.736
88.500000	92.771
90.000000	92.801
91.199997	92.833
92.500000	92.873
93.800003	92.888
95.000000	92.918
96.199997	92.948
97.500000	92.961
98.800003	92.965
100.000000	92.981
101.500000	93.000
103.000000	93.020
104.400002	93.019
106.000000	93.030
107.500000	93.035
109.000000	93.024
110.599998	93.039
112.000000	93.037
113.800003	93.091
115.000000	93.080
117.199997	93.132
118.000000	93.192
120.599998	93.292
122.000000	93.338
124.099998	93.430
125.000000	93.492
126.500000	93.489
128.000000	93.574
131.500000	93.649
132.000000	93.656
134.000000	93.720
136.000000	93.761
138.000000	93.772
140.000000	93.816
143.000000	93.875
145.000000	93.931
147.500000	93.888
150.000000	93.996
152.500000	94.022
155.000000	94.034
157.500000	94.039
160.000000	94.080
162.500000	94.143
165.000000	94.275
167.500000	94.340
170.000000	94.235
172.500000	94.219
175.000000	94.241
177.500000	94.298
180.000000	94.342
182.500000	94.326
185.000000	94.299
187.500000	94.308
190.000000	94.346
192.500000	94.363
195.000000	94.325
197.500000	94.306
200.000000	94.303
203.000000	94.315
206.000000	94.334
209.000000	94.353
212.000000	94.356
214.000000	94.375
218.000000	94.400
220.000000	94.418
224.000000	94.445
227.000000	94.453
230.000000	94.466
233.000000	94.514
236.000000	94.525
240.000000	94.532
243.000000	94.547
247.000000	94.555
250.000000	94.565
254.000000	94.554
258.000000	94.576
262.000000	94.571
265.000000	94.593
269.000000	94.605
272.000000	94.615
276.000000	94.636
280.000000	94.638
285.000000	94.648
290.000000	94.689
295.000000	94.739
300.000000	94.829
304.000000	94.861
307.000000	94.896
311.000000	94.931
315.000000	94.950
320.000000	95.015
325.000000	95.031
330.000000	95.062
335.000000	95.096
340.000000	95.123
345.000000	95.140
350.000000	95.228
355.000000	95.214
360.000000	95.203
365.000000	95.182
370.000000	95.242
375.000000	95.240
382.000000	95.253
387.000000	95.280
395.000000	95.328
400.000000	95.357
406.000000	95.401
412.000000	95.344
418.000000	95.393
425.000000	95.361
431.000000	95.424
437.000000	95.408
444.000000	95.453
450.000000	95.387
455.000000	95.404
462.000000	95.509
468.000000	95.433
475.000000	95.457
482.000000	95.516
487.000000	95.543
494.000000	95.562
500.000000	95.548
508.000000	95.503
515.000000	95.585
522.000000	95.531
530.000000	95.566
538.000000	95.674
545.000000	95.700
552.000000	95.693
560.000000	95.703
570.000000	95.752
580.000000	95.788
590.000000	95.823
600.000000	95.893
608.000000	95.920
615.000000	95.966
622.000000	96.021
630.000000	96.119
640.000000	96.137
650.000000	96.210
660.000000	96.256
670.000000	96.318
680.000000	96.408
690.000000	96.524
700.000000	96.679
710.000000	96.535
720.000000	96.716
730.000000	96.911
740.000000	96.886
750.000000	96.974
762.000000	96.941
775.000000	96.959
788.000000	96.996
800.000000	96.768
812.000000	96.787
825.000000	96.821
838.000000	96.822
850.000000	96.663
862.000000	96.683
875.000000	96.527
885.000000	96.189
900.000000	96.029
912.000000	96.159
925.000000	95.998
938.000000	95.891
950.000000	95.750
962.000000	95.473
975.000000	95.233
988.000000	95.408
1000.000000	95.508
1015.000000	95.342
1030.000000	95.423
1044.000000	95.362
1060.000000	95.272
1075.000000	95.135
1090.000000	95.075
1106.000000	95.218
1120.000000	94.969
1138.000000	95.120
1150.000000	95.198
1172.000000	94.960
1180.000000	95.056
1206.000000	95.092
1220.000000	95.182
1241.000000	95.051
1250.000000	95.085
1265.000000	95.192
1280.000000	95.002
1315.000000	95.286
1320.000000	95.234
1340.000000	95.372
1360.000000	95.486
1380.000000	95.339
1400.000000	95.663
1430.000000	95.688
1450.000000	95.779
1475.000000	96.113
1500.000000	96.405
1525.000000	96.563
1550.000000	96.653
1575.000000	97.183
1600.000000	97.402
1625.000000	97.323
1650.000000	97.848
1675.000000	97.887
1700.000000	97.747
1725.000000	97.810
1750.000000	97.894
1775.000000	97.900
1800.000000	98.006
1825.000000	98.361
1850.000000	98.278
1875.000000	98.377
1900.000000	98.708
1925.000000	98.754
1950.000000	99.022
1975.000000	99.428
2000.000000	99.612
2030.000000	99.917
2060.000000	100.340
2090.000000	100.732
2120.000000	101.448
2140.000000	101.810
2180.000000	102.421
2200.000000	102.774
2240.000000	103.352
2270.000000	103.933
2300.000000	104.334
2330.000000	105.039
2360.000000	105.212
2400.000000	106.316
2430.000000	106.899
2470.000000	107.311
2500.000000	107.691
2540.000000	108.246
2580.000000	109.026
2620.000000	109.251
2650.000000	109.667
2690.000000	110.212
2720.000000	110.550
2760.000000	110.875
2800.000000	111.167
2850.000000	111.399
2900.000000	111.813
2950.000000	111.737
3000.000000	111.851
3040.000000	111.715
3070.000000	111.612
3110.000000	111.501
3150.000000	111.425
3200.000000	111.150
3250.000000	110.656
3300.000000	110.158
3350.000000	109.683
3400.000000	109.243
3450.000000	108.824
3500.000000	108.497
3550.000000	108.239
3600.000000	107.921
3650.000000	107.814
3700.000000	107.600
3750.000000	107.400
3820.000000	106.915
3870.000000	106.719
3950.000000	106.444
4000.000000	106.259
4060.000000	106.078
4120.000000	105.855
4180.000000	105.584
4250.000000	105.422
4310.000000	105.178
4370.000000	105.065
4440.000000	104.728
4500.000000	104.564
4550.000000	104.385
4620.000000	104.138
4680.000000	103.945
4750.000000	103.638
4820.000000	103.522
4870.000000	103.514
4940.000000	103.580
5000.000000	103.655
5080.000000	103.315
5150.000000	103.324
5220.000000	102.787
5300.000000	101.995
5380.000000	101.581
5450.000000	101.088
5520.000000	101.036
5600.000000	100.818
5700.000000	100.137
5800.000000	99.723
5900.000000	98.221
6000.000000	96.765
6080.000000	94.984
6150.000000	94.541
6220.000000	93.786
6300.000000	93.802
6400.000000	94.525
6500.000000	94.742
6600.000000	94.925
6700.000000	95.136
6800.000000	95.318
6900.000000	95.225
7000.000000	95.356
7100.000000	95.993
7200.000000	96.554
7300.000000	97.484
7400.000000	98.352
7500.000000	99.233
7620.000000	99.653
7750.000000	99.798
7880.000000	99.560
8000.000000	99.838
8120.000000	101.262
8250.000000	103.186
8380.000000	103.892
8500.000000	103.765
8620.000000	103.575
8750.000000	103.524
8850.000000	103.429
9000.000000	102.634
9120.000000	101.885
9250.000000	100.605
9380.000000	98.722
9500.000000	96.510
9620.000000	94.545
9750.000000	94.115
9880.000000	95.319
10000.000000	96.919
10150.000000	98.456
10300.000000	99.292
10440.000000	99.453
10600.000000	99.348
10750.000000	99.069
10900.000000	98.428
11060.000000	97.895
11200.000000	98.289
11380.000000	99.142
11500.000000	99.419
11720.000000	99.061
11800.000000	98.782
12060.000000	98.084
12200.000000	97.876
12410.000000	97.567
12500.000000	97.618
12650.000000	98.332
12800.000000	99.340
13150.000000	99.173
13200.000000	98.860
13400.000000	97.508
13600.000000	96.435
13800.000000	95.931
14000.000000	95.401
14300.000000	94.292
14500.000000	93.126
14750.000000	90.727
15000.000000	88.684
15250.000000	86.127
15500.000000	80.470
15750.000000	74.529
16000.000000	76.238
16250.000000	76.200
16500.000000	76.943
16750.000000	79.038
17000.000000	81.108
17250.000000	83.397
17500.000000	82.865
17750.000000	80.823
18000.000000	79.156
18250.000000	77.965
18500.000000	77.175
18750.000000	77.185
19000.000000	79.462
19250.000000	81.164
19500.000000	80.902
19750.000000	79.638
20000.000000	77.914
