* Measurement data measured by REW V5.31.1
* Source: Frequency response averaged data
* Format: Averaged data produced from the rms magnitudes of L 256, L 257, L 258, L 259, L 260, L 261, RMS Average 1
* Dated: 3/08/2024 03:50:12 AM
* REW Settings:
*  C-weighting compensation: Off
*  Target level: 75.0 dB
* Note: Averaged data produced from the rms magnitudes of L 256, L 257, L 258, L 259, L 260, L 261, RMS Average 1
* Measurement: L AVG
* Smoothing: None
* Frequency Step: 1/48 octave
* Start Frequency: 20.000 Hz
*
* Freq(Hz)	SPL(dB)
20.000000	68.920
20.299999	69.254
20.600000	69.532
20.900000	69.753
21.200001	69.930
21.400000	70.032
21.799999	70.215
22.000000	70.298
22.400000	70.443
22.700001	70.531
23.000000	70.611
23.299999	70.701
23.600000	70.827
24.000000	71.082
24.299999	71.328
24.700001	71.677
25.000000	71.910
25.400000	72.151
25.799999	72.336
26.200001	72.537
26.500000	72.737
26.900000	73.067
27.200001	73.327
27.600000	73.627
28.000000	73.837
28.500000	74.028
29.000000	74.306
29.500000	74.751
30.000000	75.237
30.400000	75.535
30.700001	75.677
31.100000	75.772
31.500000	75.823
32.000000	75.941
32.500000	76.170
33.000000	76.461
33.500000	76.738
34.000000	76.969
34.500000	77.164
35.000000	77.360
35.500000	77.581
36.000000	77.824
36.500000	78.065
37.000000	78.293
37.500000	78.516
38.200001	78.830
38.700001	79.036
39.500000	79.308
40.000000	79.481
40.599998	79.733
41.200001	80.005
41.799999	80.246
42.500000	80.495
43.099998	80.716
43.700001	80.949
44.400002	81.204
45.000000	81.399
45.500000	81.556
46.200001	81.782
46.799999	81.976
47.500000	82.189
48.200001	82.411
48.700001	82.586
49.400002	82.828
50.000000	83.005
50.799999	83.218
51.500000	83.429
52.200001	83.643
53.000000	83.851
53.799999	84.054
54.500000	84.250
55.200001	84.432
56.000000	84.619
57.000000	84.873
58.000000	85.111
59.000000	85.333
60.000000	85.565
60.799999	85.727
61.500000	85.867
62.200001	86.020
63.000000	86.199
64.000000	86.418
65.000000	86.624
66.000000	86.808
67.000000	86.990
68.000000	87.173
69.000000	87.346
70.000000	87.515
71.000000	87.674
72.000000	87.841
73.000000	87.982
74.000000	88.117
75.000000	88.285
76.199997	88.418
77.500000	88.602
78.800003	88.778
80.000000	88.934
81.199997	89.109
82.500000	89.267
83.800003	89.442
85.000000	89.596
86.199997	89.718
87.500000	89.890
88.500000	90.011
90.000000	90.172
91.199997	90.307
92.500000	90.461
93.800003	90.586
95.000000	90.702
96.199997	90.817
97.500000	90.951
98.800003	91.058
100.000000	91.158
101.500000	91.295
103.000000	91.413
104.400002	91.510
106.000000	91.635
107.500000	91.736
109.000000	91.844
110.599998	91.939
112.000000	92.017
113.800003	92.139
115.000000	92.209
117.199997	92.331
118.000000	92.384
120.599998	92.511
122.000000	92.573
124.099998	92.673
125.000000	92.709
126.500000	92.767
128.000000	92.807
131.500000	92.937
132.000000	92.958
134.000000	93.009
136.000000	93.074
138.000000	93.129
140.000000	93.186
143.000000	93.265
145.000000	93.342
147.500000	93.405
150.000000	93.457
152.500000	93.507
155.000000	93.571
157.500000	93.632
160.000000	93.685
162.500000	93.715
165.000000	93.739
167.500000	93.781
170.000000	93.832
172.500000	93.852
175.000000	93.880
177.500000	93.918
180.000000	93.961
182.500000	93.991
185.000000	94.027
187.500000	94.060
190.000000	94.087
192.500000	94.122
195.000000	94.153
197.500000	94.178
200.000000	94.198
203.000000	94.245
206.000000	94.293
209.000000	94.353
212.000000	94.397
214.000000	94.418
218.000000	94.472
220.000000	94.510
224.000000	94.568
227.000000	94.564
230.000000	94.598
233.000000	94.640
236.000000	94.667
240.000000	94.696
243.000000	94.707
247.000000	94.713
250.000000	94.785
254.000000	94.904
258.000000	95.012
262.000000	95.089
265.000000	95.141
269.000000	95.192
272.000000	95.234
276.000000	95.299
280.000000	95.348
285.000000	95.408
290.000000	95.419
295.000000	95.453
300.000000	95.494
304.000000	95.609
307.000000	95.721
311.000000	95.854
315.000000	95.957
320.000000	96.053
325.000000	96.133
330.000000	96.203
335.000000	96.262
340.000000	96.305
345.000000	96.376
350.000000	96.417
355.000000	96.478
360.000000	96.503
365.000000	96.525
370.000000	96.565
375.000000	96.599
382.000000	96.648
387.000000	96.680
395.000000	96.707
400.000000	96.718
406.000000	96.740
412.000000	96.667
418.000000	96.693
425.000000	96.683
431.000000	96.726
437.000000	96.719
444.000000	96.722
450.000000	96.700
455.000000	96.705
462.000000	96.771
468.000000	96.742
475.000000	96.715
482.000000	96.772
487.000000	96.808
494.000000	96.839
500.000000	96.863
508.000000	96.849
515.000000	96.955
522.000000	96.971
530.000000	97.010
538.000000	97.071
545.000000	97.134
552.000000	97.117
560.000000	97.167
570.000000	97.294
580.000000	97.368
590.000000	97.385
600.000000	97.355
608.000000	97.395
615.000000	97.387
622.000000	97.429
630.000000	97.424
640.000000	97.412
650.000000	97.392
660.000000	97.316
670.000000	97.310
680.000000	97.223
690.000000	97.236
700.000000	97.227
710.000000	96.943
720.000000	97.090
730.000000	97.134
740.000000	97.032
750.000000	96.983
762.000000	96.953
775.000000	96.861
788.000000	96.882
800.000000	96.724
812.000000	96.728
825.000000	96.738
838.000000	96.830
850.000000	96.789
862.000000	96.857
875.000000	96.811
885.000000	96.717
900.000000	96.663
912.000000	96.781
925.000000	96.739
938.000000	96.700
950.000000	96.674
962.000000	96.513
975.000000	96.388
988.000000	96.391
1000.000000	96.443
1015.000000	96.265
1030.000000	96.292
1044.000000	96.241
1060.000000	96.082
1075.000000	95.921
1090.000000	95.825
1106.000000	95.938
1120.000000	95.711
1138.000000	95.864
1150.000000	95.887
1172.000000	95.653
1180.000000	95.766
1206.000000	95.753
1220.000000	95.695
1241.000000	95.573
1250.000000	95.535
1265.000000	95.557
1280.000000	95.369
1315.000000	95.405
1320.000000	95.369
1340.000000	95.251
1360.000000	95.155
1380.000000	94.923
1400.000000	94.966
1430.000000	94.780
1450.000000	94.551
1475.000000	94.552
1500.000000	94.442
1525.000000	94.119
1550.000000	93.871
1575.000000	93.944
1600.000000	93.789
1625.000000	93.447
1650.000000	93.741
1675.000000	93.649
1700.000000	93.335
1725.000000	93.351
1750.000000	93.538
1775.000000	93.596
1800.000000	93.725
1825.000000	94.156
1850.000000	94.058
1875.000000	94.115
1900.000000	94.485
1925.000000	94.429
1950.000000	94.644
1975.000000	95.070
2000.000000	95.259
2030.000000	95.434
2060.000000	95.778
2090.000000	95.977
2120.000000	96.714
2140.000000	96.975
2180.000000	97.518
2200.000000	97.816
2240.000000	98.253
2270.000000	98.916
2300.000000	99.094
2330.000000	99.815
2360.000000	99.787
2400.000000	100.836
2430.000000	101.386
2470.000000	101.746
2500.000000	101.940
2540.000000	102.394
2580.000000	103.101
2620.000000	103.230
2650.000000	103.712
2690.000000	104.495
2720.000000	104.988
2760.000000	105.511
2800.000000	106.268
2850.000000	106.824
2900.000000	107.909
2950.000000	108.290
3000.000000	108.901
3040.000000	109.301
3070.000000	109.326
3110.000000	109.749
3150.000000	110.052
3200.000000	110.428
3250.000000	109.926
3300.000000	109.743
3350.000000	109.148
3400.000000	108.319
3450.000000	107.444
3500.000000	106.630
3550.000000	105.712
3600.000000	104.702
3650.000000	104.178
3700.000000	103.505
3750.000000	103.151
3820.000000	102.791
3870.000000	102.996
3950.000000	103.109
4000.000000	102.975
4060.000000	102.968
4120.000000	102.711
4180.000000	102.367
4250.000000	102.046
4310.000000	101.480
4370.000000	100.810
4440.000000	100.071
4500.000000	99.841
4550.000000	100.267
4620.000000	100.686
4680.000000	101.125
4750.000000	101.379
4820.000000	101.581
4870.000000	101.939
4940.000000	102.398
5000.000000	102.862
5080.000000	103.866
5150.000000	104.607
5220.000000	105.744
5300.000000	107.096
5380.000000	108.378
5450.000000	109.100
5520.000000	108.699
5600.000000	106.996
5700.000000	104.158
5800.000000	101.412
5900.000000	99.101
6000.000000	97.303
6080.000000	96.095
6150.000000	94.953
6220.000000	93.451
6300.000000	91.313
6400.000000	87.803
6500.000000	86.095
6600.000000	88.285
6700.000000	91.205
6800.000000	93.376
6900.000000	95.406
7000.000000	97.037
7100.000000	98.445
7200.000000	99.504
7300.000000	100.106
7400.000000	100.447
7500.000000	100.749
7620.000000	101.069
7750.000000	101.397
7880.000000	101.716
8000.000000	101.866
8120.000000	101.751
8250.000000	101.200
8380.000000	99.725
8500.000000	97.848
8620.000000	96.318
8750.000000	95.938
8850.000000	96.815
9000.000000	99.148
9120.000000	100.493
9250.000000	100.686
9380.000000	99.425
9500.000000	97.620
9620.000000	95.665
9750.000000	93.618
9880.000000	91.853
10000.000000	90.409
10150.000000	89.196
10300.000000	88.732
10440.000000	89.251
10600.000000	90.956
10750.000000	93.298
10900.000000	96.004
11060.000000	98.453
11200.000000	98.116
11380.000000	95.600
11500.000000	94.410
11720.000000	93.627
11800.000000	93.625
12060.000000	93.543
12200.000000	93.844
12410.000000	94.195
12500.000000	94.214
12650.000000	94.224
12800.000000	94.558
13150.000000	96.939
13200.000000	96.956
13400.000000	94.844
13600.000000	92.751
13800.000000	91.415
14000.000000	90.390
14300.000000	89.324
14500.000000	90.249
14750.000000	92.076
15000.000000	92.095
15250.000000	88.166
15500.000000	80.940
15750.000000	80.829
16000.000000	83.607
16250.000000	84.824
16500.000000	85.703
16750.000000	86.713
17000.000000	87.909
17250.000000	88.432
17500.000000	88.243
17750.000000	87.083
18000.000000	83.524
18250.000000	79.555
18500.000000	75.762
18750.000000	81.293
19000.000000	87.797
19250.000000	91.397
19500.000000	92.763
19750.000000	92.542
20000.000000	91.924
