* Measurement data measured by REW V5.31.1
* Source: EXCL: Micr√≥fono (Realtek(R) Audio), MICROPHONE (Volumen general), L, volume: 0,900. Timing signal peak level -16,9 dBFS, measurement signal peak level -13,4 dBFS
* Format: 512k Log Swept Sine, 1 sweep at -12,0 dBFS using an acoustic timing reference
* Dated: 26/07/2024 11:51:45 PM
* REW Settings:
*  C-weighting compensation: Off
*  Target level: 75.0 dB
* Note: Delay -0,0298 ms (-10 mm, -0,4 in) using estimated IR delay relative to Acoustic reference played from SPEAKER L with no timing offset
* Measurement: L 88
* Smoothing: None
* Frequency Step: 1/48 octave
* Start Frequency: 20.000 Hz
*
* Freq(Hz)	SPL(dB)	Phase(degrees)
20.000000	106.482	-160.0075
20.299999	106.488	-160.7457
20.600000	106.489	-161.4914
20.900000	106.485	-162.2246
21.200001	106.475	-162.9239
21.400000	106.467	-163.3639
21.799999	106.451	-164.1862
22.000000	106.446	-164.5770
22.400000	106.439	-165.3447
22.700001	106.436	-165.9294
23.000000	106.432	-166.5277
23.299999	106.425	-167.1335
23.600000	106.413	-167.7332
24.000000	106.393	-168.5001
24.299999	106.376	-169.0437
24.700001	106.355	-169.7336
25.000000	106.341	-170.2383
25.400000	106.325	-170.9103
25.799999	106.309	-171.5874
26.200001	106.291	-172.2614
26.500000	106.277	-172.7573
26.900000	106.257	-173.4006
27.200001	106.242	-173.8712
27.600000	106.224	-174.4902
28.000000	106.205	-175.1043
28.500000	106.180	-175.8583
29.000000	106.150	-176.5691
29.500000	106.121	-177.2148
30.000000	106.098	-177.8131
30.400000	106.084	-178.2911
30.700001	106.075	-178.6656
31.100000	106.060	-179.1903
31.500000	106.038	-179.7248
32.000000	106.001	179.6426
32.500000	105.960	179.0803
33.000000	105.924	178.5551
33.500000	105.893	178.0053
34.000000	105.859	177.4115
34.500000	105.817	176.8120
35.000000	105.774	176.2465
35.500000	105.734	175.7063
36.000000	105.699	175.1611
36.500000	105.665	174.6116
37.000000	105.633	174.0845
37.500000	105.605	173.5833
38.200001	105.571	172.8893
38.700001	105.543	172.4206
39.500000	105.498	171.8018
40.000000	105.476	171.4450
40.599998	105.444	170.9827
41.200001	105.393	170.5637
41.799999	105.339	170.2329
42.500000	105.280	169.7938
43.099998	105.214	169.3254
43.700001	105.142	168.8438
44.400002	105.062	167.9774
45.000000	104.918	166.8529
45.500000	104.697	166.2264
46.200001	104.386	166.9517
46.799999	104.379	168.4579
47.500000	104.649	168.6633
48.200001	104.819	166.8855
48.700001	104.792	165.5800
49.400002	104.703	164.6510
50.000000	104.679	164.2133
50.799999	104.656	163.5016
51.500000	104.607	163.1102
52.200001	104.580	162.9213
53.000000	104.552	162.5481
53.799999	104.487	162.1978
54.500000	104.429	162.0143
55.200001	104.384	161.7521
56.000000	104.320	161.3066
57.000000	104.229	160.8434
58.000000	104.183	160.3211
59.000000	104.108	159.4921
60.000000	104.006	159.1600
60.799999	103.982	158.9375
61.500000	103.944	158.5267
62.200001	103.873	158.2829
63.000000	103.818	158.2144
64.000000	103.766	157.8483
65.000000	103.677	157.5195
66.000000	103.610	157.2085
67.000000	103.527	156.7812
68.000000	103.445	156.5098
69.000000	103.385	156.2811
70.000000	103.342	155.9910
71.000000	103.289	155.6135
72.000000	103.227	155.3159
73.000000	103.168	155.0023
74.000000	103.099	154.7297
75.000000	103.036	154.4933
76.199997	102.957	154.2062
77.500000	102.878	153.9330
78.800003	102.793	153.6642
80.000000	102.715	153.4076
81.199997	102.639	153.2637
82.500000	102.575	152.8972
83.800003	102.497	152.7262
85.000000	102.444	152.1524
86.199997	102.305	152.0634
87.500000	102.269	152.1033
88.500000	102.211	151.8902
90.000000	102.135	151.7761
91.199997	102.077	151.5460
92.500000	101.997	151.3088
93.800003	101.923	151.1395
95.000000	101.855	151.0063
96.199997	101.789	150.8794
97.500000	101.723	150.8222
98.800003	101.664	150.6555
100.000000	101.597	150.5185
101.500000	101.506	150.3786
103.000000	101.438	150.2464
104.400002	101.351	150.1109
106.000000	101.272	149.9603
107.500000	101.192	149.9530
109.000000	101.138	149.8581
110.599998	101.054	149.7815
112.000000	100.997	149.6587
113.800003	100.908	149.6622
115.000000	100.849	149.5197
117.199997	100.746	149.5145
118.000000	100.719	149.3721
120.599998	100.572	149.5948
122.000000	100.520	149.3781
124.099998	100.425	149.3244
125.000000	100.392	149.3097
126.500000	100.330	149.2602
128.000000	100.268	149.2592
131.500000	100.118	149.2806
132.000000	100.092	149.2982
134.000000	100.000	149.2889
136.000000	99.923	149.2861
138.000000	99.838	149.4053
140.000000	99.755	149.4310
143.000000	99.623	149.5785
145.000000	99.533	149.5891
147.500000	99.451	149.6907
150.000000	99.342	149.8286
152.500000	99.235	150.0900
155.000000	99.104	150.4639
157.500000	98.983	150.6581
160.000000	98.884	151.3668
162.500000	98.839	151.9174
165.000000	98.762	152.3691
167.500000	98.670	153.1187
170.000000	98.670	154.0818
172.500000	98.652	154.6509
175.000000	98.776	154.8238
177.500000	98.873	154.7414
180.000000	98.817	153.9523
182.500000	98.756	153.5523
185.000000	98.711	153.3440
187.500000	98.615	153.0646
190.000000	98.531	152.9324
192.500000	98.454	152.9109
195.000000	98.372	152.9429
197.500000	98.297	152.9283
200.000000	98.234	152.9557
203.000000	98.138	153.0633
206.000000	98.080	153.1992
209.000000	98.001	153.1955
212.000000	97.933	153.3998
214.000000	97.884	153.6243
218.000000	97.809	153.8154
220.000000	97.766	154.0507
224.000000	97.690	154.1313
227.000000	97.615	154.3990
230.000000	97.569	154.4862
233.000000	97.501	154.8128
236.000000	97.461	154.9257
240.000000	97.379	155.2487
243.000000	97.338	155.5269
247.000000	97.268	155.7139
250.000000	97.228	155.8639
254.000000	97.167	156.3253
258.000000	97.080	156.6871
262.000000	96.996	156.8045
265.000000	96.960	157.1022
269.000000	96.910	157.4141
272.000000	96.861	157.6935
276.000000	96.777	157.9523
280.000000	96.730	158.3361
285.000000	96.655	158.7878
290.000000	96.580	159.0891
295.000000	96.501	159.6450
300.000000	96.456	160.0002
304.000000	96.411	160.1974
307.000000	96.382	160.5820
311.000000	96.352	160.8688
315.000000	96.289	161.1984
320.000000	96.234	161.6328
325.000000	96.170	162.0363
330.000000	96.137	162.3832
335.000000	96.064	162.8812
340.000000	95.999	163.2343
345.000000	95.961	163.8711
350.000000	95.921	164.1975
355.000000	95.908	164.9890
360.000000	95.888	165.2420
365.000000	95.901	165.7288
370.000000	95.861	165.9940
375.000000	95.870	166.2623
382.000000	95.804	166.7416
387.000000	95.780	166.9249
395.000000	95.731	167.2680
400.000000	95.713	167.6281
406.000000	95.644	167.9394
412.000000	95.605	168.4851
418.000000	95.586	168.7662
425.000000	95.529	169.2792
431.000000	95.498	169.7213
437.000000	95.449	170.1101
444.000000	95.423	170.7403
450.000000	95.379	171.0445
455.000000	95.359	171.3229
462.000000	95.333	171.9812
468.000000	95.285	172.4062
475.000000	95.289	172.7098
482.000000	95.249	173.3734
487.000000	95.223	173.4872
494.000000	95.195	174.1384
500.000000	95.183	174.6483
508.000000	95.147	174.9802
515.000000	95.147	175.6326
522.000000	95.105	176.1904
530.000000	95.093	176.5587
538.000000	95.066	177.1479
545.000000	95.087	177.7114
552.000000	95.045	178.2704
560.000000	95.021	178.7329
570.000000	95.011	179.3210
580.000000	94.979	-179.8157
590.000000	94.964	-179.2234
600.000000	94.960	-178.5972
608.000000	94.959	-178.2218
615.000000	94.958	-177.4564
622.000000	94.960	-177.1488
630.000000	94.936	-176.6827
640.000000	94.930	-175.8360
650.000000	94.953	-175.1371
660.000000	94.960	-174.4394
670.000000	94.946	-173.7743
680.000000	94.956	-173.1076
690.000000	94.940	-172.4621
700.000000	94.954	-171.7757
710.000000	94.962	-171.1795
720.000000	94.997	-170.4827
730.000000	95.010	-169.8199
740.000000	95.018	-169.1036
750.000000	95.011	-168.6119
762.000000	95.038	-167.8389
775.000000	95.053	-166.8378
788.000000	95.085	-166.1653
800.000000	95.121	-165.1726
812.000000	95.174	-164.0764
825.000000	95.286	-163.2382
838.000000	95.335	-162.5070
850.000000	95.379	-162.1223
862.000000	95.407	-161.4680
875.000000	95.452	-160.6190
885.000000	95.490	-160.0043
900.000000	95.536	-159.2017
912.000000	95.595	-158.4705
925.000000	95.631	-157.4758
938.000000	95.710	-156.2791
950.000000	95.883	-155.7323
962.000000	95.993	-155.2679
975.000000	96.073	-154.8908
988.000000	96.125	-154.5941
1000.000000	96.203	-154.0017
1015.000000	96.274	-153.2434
1030.000000	96.377	-152.8804
1044.000000	96.490	-152.1529
1060.000000	96.564	-151.6100
1075.000000	96.683	-151.0397
1090.000000	96.797	-150.5592
1106.000000	96.926	-150.0714
1120.000000	97.017	-149.7614
1138.000000	97.157	-149.3549
1150.000000	97.241	-148.9462
1172.000000	97.423	-148.6191
1180.000000	97.477	-148.3624
1206.000000	97.689	-148.0621
1220.000000	97.776	-148.0163
1241.000000	97.928	-147.7056
1250.000000	97.990	-147.8293
1265.000000	98.108	-147.6163
1280.000000	98.228	-147.7092
1315.000000	98.470	-147.5838
1320.000000	98.467	-147.6626
1340.000000	98.591	-147.5806
1360.000000	98.723	-147.6767
1380.000000	98.841	-147.7468
1400.000000	98.947	-147.7246
1430.000000	99.094	-147.6752
1450.000000	99.211	-147.7183
1475.000000	99.351	-147.8451
1500.000000	99.477	-147.7454
1525.000000	99.561	-147.8642
1550.000000	99.721	-147.8234
1575.000000	99.837	-147.7397
1600.000000	99.973	-147.8426
1625.000000	100.078	-147.8622
1650.000000	100.232	-147.8217
1675.000000	100.336	-148.0828
1700.000000	100.462	-148.0022
1725.000000	100.606	-148.0679
1750.000000	100.738	-148.2869
1775.000000	100.853	-148.3351
1800.000000	100.990	-148.5252
1825.000000	101.117	-148.6103
1850.000000	101.233	-148.8464
1875.000000	101.376	-149.0462
1900.000000	101.497	-149.3562
1925.000000	101.636	-149.6052
1950.000000	101.766	-149.9101
1975.000000	101.891	-150.2415
2000.000000	102.021	-150.4996
2030.000000	102.164	-151.0001
2060.000000	102.313	-151.4942
2090.000000	102.461	-152.1051
2120.000000	102.607	-152.6688
2140.000000	102.690	-153.1297
2180.000000	102.883	-153.9607
2200.000000	102.977	-154.4350
2240.000000	103.135	-155.4236
2270.000000	103.262	-156.2561
2300.000000	103.378	-157.0611
2330.000000	103.483	-157.9251
2360.000000	103.592	-158.8889
2400.000000	103.736	-160.0274
2430.000000	103.810	-160.9644
2470.000000	103.911	-162.3102
2500.000000	103.974	-163.3195
2540.000000	104.080	-164.6873
2580.000000	104.135	-165.9695
2620.000000	104.196	-167.4143
2650.000000	104.242	-168.4872
2690.000000	104.274	-169.7701
2720.000000	104.289	-170.7564
2760.000000	104.296	-172.1241
2800.000000	104.305	-173.3826
2850.000000	104.277	-174.9130
2900.000000	104.249	-176.4688
2950.000000	104.202	-177.9086
3000.000000	104.138	-179.2569
3040.000000	104.086	179.7327
3070.000000	104.039	178.8777
3110.000000	103.982	177.9962
3150.000000	103.902	177.0566
3200.000000	103.766	175.9697
3250.000000	103.624	174.9716
3300.000000	103.503	174.0454
3350.000000	103.350	173.2322
3400.000000	103.210	172.3051
3450.000000	103.049	171.7053
3500.000000	102.914	170.9665
3550.000000	102.763	170.2652
3600.000000	102.612	169.7587
3650.000000	102.454	169.1056
3700.000000	102.317	168.5350
3750.000000	102.172	168.1228
3820.000000	101.960	167.4166
3870.000000	101.797	166.9926
3950.000000	101.562	166.2462
4000.000000	101.421	166.0577
4060.000000	101.271	165.5067
4120.000000	101.105	165.2754
4180.000000	100.971	164.7769
4250.000000	100.782	164.4206
4310.000000	100.628	164.2263
4370.000000	100.479	163.9076
4440.000000	100.289	163.5968
4500.000000	100.131	163.4739
4550.000000	100.005	163.5489
4620.000000	99.786	163.3263
4680.000000	99.616	163.3253
4750.000000	99.432	163.4235
4820.000000	99.241	163.4800
4870.000000	99.092	163.6677
4940.000000	98.902	163.7616
5000.000000	98.730	164.0742
5080.000000	98.458	164.6148
5150.000000	98.256	164.8794
5220.000000	98.031	165.5619
5300.000000	97.809	166.2956
5380.000000	97.547	167.0462
5450.000000	97.346	167.7952
5520.000000	97.162	168.7700
5600.000000	96.916	170.0365
5700.000000	96.632	171.5092
5800.000000	96.208	175.2036
5900.000000	96.710	179.1022
6000.000000	96.708	177.8419
6080.000000	96.586	178.4934
6150.000000	96.448	179.4531
6220.000000	96.363	-179.2374
6300.000000	96.347	-177.7010
6400.000000	96.341	-175.8707
6500.000000	96.413	-174.1326
6600.000000	96.535	-172.2066
6700.000000	96.738	-170.2382
6800.000000	96.969	-168.4605
6900.000000	97.254	-167.0872
7000.000000	97.567	-165.4189
7100.000000	97.960	-164.3520
7200.000000	98.465	-163.2950
7300.000000	99.015	-163.0409
7400.000000	99.679	-163.2603
7500.000000	100.379	-164.2431
7620.000000	101.367	-167.4106
7750.000000	102.503	-173.6456
7880.000000	103.386	176.1006
8000.000000	103.652	163.4432
8120.000000	103.076	150.1223
8250.000000	101.737	138.6439
8380.000000	100.045	131.1424
8500.000000	98.456	127.5647
8620.000000	96.910	125.9862
8750.000000	95.480	125.5481
8850.000000	94.424	126.7692
9000.000000	93.027	128.5082
9120.000000	92.006	130.9300
9250.000000	91.040	133.6221
9380.000000	90.170	136.8735
9500.000000	89.433	139.6604
9620.000000	88.723	143.7527
9750.000000	88.110	146.4670
9880.000000	87.602	149.6497
10000.000000	86.789	153.7921
10150.000000	86.356	157.7029
10300.000000	85.901	162.2290
10440.000000	85.495	166.0204
10600.000000	85.033	171.5330
10750.000000	84.879	175.7540
10900.000000	84.686	179.0426
11060.000000	84.374	-177.5097
11200.000000	84.357	-172.9366
11380.000000	84.521	-169.4629
11500.000000	84.547	-167.0541
11720.000000	84.595	-164.9933
11800.000000	84.725	-165.2211
12060.000000	84.526	-166.3708
12200.000000	84.224	-168.5696
12410.000000	83.313	-171.0196
12500.000000	82.511	-169.8534
12650.000000	81.679	-168.4781
12800.000000	80.738	-163.7278
13150.000000	80.191	-151.7312
13200.000000	80.299	-150.6047
13400.000000	80.088	-146.9420
13600.000000	79.512	-143.9851
13800.000000	79.489	-139.6747
14000.000000	78.894	-136.5603
14300.000000	78.518	-129.6329
14500.000000	78.531	-123.5514
14750.000000	78.149	-121.0445
15000.000000	78.273	-114.7387
15250.000000	78.474	-112.8955
15500.000000	79.236	-107.3258
15750.000000	79.807	-109.7165
16000.000000	80.636	-118.1595
16250.000000	80.213	-131.3541
16500.000000	78.201	-139.6606
16750.000000	75.572	-141.1942
17000.000000	73.268	-136.0560
17250.000000	72.294	-127.3786
17500.000000	69.692	-123.8436
17750.000000	68.918	-107.7939
18000.000000	67.001	-85.7747
18250.000000	69.672	-80.2590
18500.000000	67.034	-106.4669
18750.000000	62.212	-36.1816
19000.000000	66.199	-31.5031
19250.000000	64.112	-22.5573
19500.000000	66.905	-12.3963
19750.000000	69.436	-6.6134
