* Measurement data measured by REW V5.31.1
* Source: Frequency response averaged data
* Format: Averaged data produced from the rms magnitudes of R 391, R 392, R 393, R 394
* Dated: 9/08/2024 03:01:24 AM
* REW Settings:
*  C-weighting compensation: Off
*  Target level: 75.0 dB
* Note: Averaged data produced from the rms magnitudes of R 391, R 392, R 393, R 394
* Measurement: R AVG
* Smoothing: None
* Frequency Step: 1/48 octave
* Start Frequency: 20.000 Hz
*
* Freq(Hz)	SPL(dB)
20.000000	96.759
20.299999	96.877
20.600000	97.002
20.900000	97.128
21.200001	97.249
21.400000	97.326
21.799999	97.464
22.000000	97.527
22.400000	97.642
22.700001	97.722
23.000000	97.802
23.299999	97.882
23.600000	97.961
24.000000	98.065
24.299999	98.139
24.700001	98.234
25.000000	98.301
25.400000	98.388
25.799999	98.472
26.200001	98.551
26.500000	98.606
26.900000	98.678
27.200001	98.730
27.600000	98.800
28.000000	98.873
28.500000	98.964
29.000000	99.052
29.500000	99.134
30.000000	99.211
30.400000	99.270
30.700001	99.312
31.100000	99.366
31.500000	99.416
32.000000	99.474
32.500000	99.526
33.000000	99.572
33.500000	99.616
34.000000	99.661
34.500000	99.708
35.000000	99.752
35.500000	99.791
36.000000	99.829
36.500000	99.868
37.000000	99.905
37.500000	99.938
38.200001	99.980
38.700001	100.013
39.500000	100.066
40.000000	100.088
40.599998	100.108
41.200001	100.126
41.799999	100.144
42.500000	100.154
43.099998	100.150
43.700001	100.143
44.400002	100.135
45.000000	100.129
45.500000	100.120
46.200001	100.098
46.799999	100.072
47.500000	100.046
48.200001	100.023
48.700001	100.010
49.400002	100.017
50.000000	100.051
50.799999	100.087
51.500000	100.059
52.200001	99.994
53.000000	99.925
53.799999	99.869
54.500000	99.825
55.200001	99.794
56.000000	99.771
57.000000	99.744
58.000000	99.718
59.000000	99.702
60.000000	99.705
60.799999	99.717
61.500000	99.727
62.200001	99.732
63.000000	99.726
64.000000	99.707
65.000000	99.676
66.000000	99.648
67.000000	99.621
68.000000	99.578
69.000000	99.526
70.000000	99.471
71.000000	99.416
72.000000	99.378
73.000000	99.345
74.000000	99.318
75.000000	99.318
76.199997	99.312
77.500000	99.323
78.800003	99.334
80.000000	99.348
81.199997	99.319
82.500000	99.313
83.800003	99.294
85.000000	99.229
86.199997	99.171
87.500000	99.159
88.500000	99.153
90.000000	99.141
91.199997	99.139
92.500000	99.149
93.800003	99.151
95.000000	99.134
96.199997	99.132
97.500000	99.114
98.800003	99.098
100.000000	99.066
101.500000	99.005
103.000000	98.943
104.400002	98.913
106.000000	98.910
107.500000	98.898
109.000000	98.872
110.599998	98.848
112.000000	98.811
113.800003	98.775
115.000000	98.744
117.199997	98.665
118.000000	98.641
120.599998	98.575
122.000000	98.539
124.099998	98.474
125.000000	98.452
126.500000	98.398
128.000000	98.343
131.500000	98.214
132.000000	98.199
134.000000	98.132
136.000000	98.051
138.000000	97.986
140.000000	97.898
143.000000	97.784
145.000000	97.701
147.500000	97.615
150.000000	97.533
152.500000	97.443
155.000000	97.359
157.500000	97.268
160.000000	97.184
162.500000	97.074
165.000000	96.975
167.500000	96.857
170.000000	96.746
172.500000	96.653
175.000000	96.576
177.500000	96.509
180.000000	96.453
182.500000	96.368
185.000000	96.297
187.500000	96.221
190.000000	96.137
192.500000	96.062
195.000000	95.980
197.500000	95.889
200.000000	95.811
203.000000	95.715
206.000000	95.629
209.000000	95.525
212.000000	95.437
214.000000	95.360
218.000000	95.191
220.000000	95.139
224.000000	95.073
227.000000	95.018
230.000000	94.959
233.000000	94.888
236.000000	94.818
240.000000	94.713
243.000000	94.626
247.000000	94.512
250.000000	94.409
254.000000	94.265
258.000000	94.138
262.000000	94.011
265.000000	93.903
269.000000	93.756
272.000000	93.645
276.000000	93.504
280.000000	93.308
285.000000	93.091
290.000000	92.910
295.000000	92.680
300.000000	92.426
304.000000	92.230
307.000000	92.114
311.000000	91.970
315.000000	91.806
320.000000	91.585
325.000000	91.349
330.000000	91.120
335.000000	90.850
340.000000	90.670
345.000000	90.419
350.000000	90.150
355.000000	89.859
360.000000	89.614
365.000000	89.366
370.000000	89.073
375.000000	88.809
382.000000	88.463
387.000000	88.236
395.000000	87.935
400.000000	87.696
406.000000	87.576
412.000000	87.613
418.000000	87.635
425.000000	87.678
431.000000	87.831
437.000000	88.120
444.000000	88.555
450.000000	89.032
455.000000	89.296
462.000000	89.789
468.000000	90.272
475.000000	90.738
482.000000	91.200
487.000000	91.509
494.000000	91.943
500.000000	92.358
508.000000	92.790
515.000000	93.144
522.000000	93.470
530.000000	93.832
538.000000	94.109
545.000000	94.329
552.000000	94.512
560.000000	94.705
570.000000	94.905
580.000000	95.060
590.000000	95.209
600.000000	95.323
608.000000	95.379
615.000000	95.437
622.000000	95.463
630.000000	95.520
640.000000	95.558
650.000000	95.605
660.000000	95.607
670.000000	95.628
680.000000	95.637
690.000000	95.647
700.000000	95.648
710.000000	95.652
720.000000	95.629
730.000000	95.621
740.000000	95.623
750.000000	95.593
762.000000	95.578
775.000000	95.531
788.000000	95.502
800.000000	95.478
812.000000	95.411
825.000000	95.389
838.000000	95.323
850.000000	95.280
862.000000	95.230
875.000000	95.193
885.000000	95.161
900.000000	95.076
912.000000	95.017
925.000000	94.966
938.000000	94.883
950.000000	94.866
962.000000	94.838
975.000000	94.787
988.000000	94.731
1000.000000	94.692
1015.000000	94.617
1030.000000	94.547
1044.000000	94.496
1060.000000	94.454
1075.000000	94.394
1090.000000	94.335
1106.000000	94.231
1120.000000	94.190
1138.000000	94.089
1150.000000	94.038
1172.000000	93.930
1180.000000	93.875
1206.000000	93.735
1220.000000	93.661
1241.000000	93.580
1250.000000	93.532
1265.000000	93.436
1280.000000	93.387
1315.000000	93.161
1320.000000	93.115
1340.000000	92.924
1360.000000	92.767
1380.000000	92.666
1400.000000	92.546
1430.000000	92.380
1450.000000	92.203
1475.000000	92.045
1500.000000	91.995
1525.000000	91.990
1550.000000	91.929
1575.000000	91.763
1600.000000	91.625
1625.000000	91.577
1650.000000	91.522
1675.000000	91.502
1700.000000	91.492
1725.000000	91.550
1750.000000	91.579
1775.000000	91.585
1800.000000	91.549
1825.000000	91.501
1850.000000	91.528
1875.000000	91.504
1900.000000	91.602
1925.000000	91.708
1950.000000	91.770
1975.000000	91.808
2000.000000	91.931
2030.000000	92.022
2060.000000	92.169
2090.000000	92.323
2120.000000	92.485
2140.000000	92.579
2180.000000	92.788
2200.000000	92.908
2240.000000	93.133
2270.000000	93.393
2300.000000	93.896
2330.000000	94.638
2360.000000	95.414
2400.000000	95.779
2430.000000	95.777
2470.000000	95.790
2500.000000	95.824
2540.000000	95.906
2580.000000	96.052
2620.000000	96.220
2650.000000	96.386
2690.000000	96.601
2720.000000	96.776
2760.000000	96.999
2800.000000	96.770
2850.000000	96.132
2900.000000	95.598
2950.000000	95.530
3000.000000	95.280
3040.000000	95.039
3070.000000	95.213
3110.000000	95.692
3150.000000	95.891
3200.000000	95.820
3250.000000	95.503
3300.000000	95.096
3350.000000	94.743
3400.000000	94.565
3450.000000	94.586
3500.000000	94.495
3550.000000	94.232
3600.000000	93.971
3650.000000	93.955
3700.000000	94.187
3750.000000	94.567
3820.000000	94.734
3870.000000	94.883
3950.000000	95.765
4000.000000	96.295
4060.000000	97.143
4120.000000	98.231
4180.000000	98.652
4250.000000	99.047
4310.000000	99.197
4370.000000	99.080
4440.000000	98.545
4500.000000	97.970
4550.000000	97.662
4620.000000	97.741
4680.000000	98.238
4750.000000	98.968
4820.000000	99.425
4870.000000	99.577
4940.000000	99.494
5000.000000	99.127
5080.000000	99.331
5150.000000	99.781
5220.000000	99.959
5300.000000	99.989
5380.000000	99.850
5450.000000	99.773
5520.000000	99.767
5600.000000	99.802
5700.000000	99.901
5800.000000	99.957
5900.000000	100.017
6000.000000	99.817
6080.000000	99.116
6150.000000	98.764
6220.000000	98.797
6300.000000	99.146
6400.000000	100.131
6500.000000	101.358
6600.000000	102.122
6700.000000	102.088
6800.000000	101.272
6900.000000	99.983
7000.000000	98.628
7100.000000	97.422
7200.000000	96.222
7300.000000	95.327
7400.000000	94.657
7500.000000	94.206
7620.000000	93.980
7750.000000	94.197
7880.000000	94.796
8000.000000	95.624
8120.000000	96.870
8250.000000	98.299
8380.000000	99.197
8500.000000	99.876
8620.000000	100.034
8750.000000	99.277
8850.000000	98.038
9000.000000	95.556
9120.000000	93.501
9250.000000	91.422
9380.000000	89.453
9500.000000	88.479
9620.000000	88.239
9750.000000	88.077
9880.000000	87.716
10000.000000	87.564
10150.000000	87.336
10300.000000	86.880
10440.000000	86.935
10600.000000	86.563
10750.000000	87.061
10900.000000	87.877
11060.000000	88.634
11200.000000	89.135
11380.000000	89.047
11500.000000	88.326
11720.000000	86.766
11800.000000	86.133
12060.000000	85.290
12200.000000	85.277
12410.000000	85.955
12500.000000	86.672
12650.000000	88.439
12800.000000	90.557
13150.000000	92.646
13200.000000	92.623
13400.000000	91.923
13600.000000	90.564
13800.000000	88.982
14000.000000	87.246
14300.000000	84.511
14500.000000	83.069
14750.000000	80.405
15000.000000	77.117
15250.000000	75.779
15500.000000	73.482
15750.000000	71.207
16000.000000	70.757
16250.000000	71.319
16500.000000	74.289
16750.000000	77.973
17000.000000	81.998
17250.000000	86.130
17500.000000	86.978
17750.000000	84.690
18000.000000	82.085
18250.000000	79.598
18500.000000	77.515
18750.000000	75.513
19000.000000	74.461
19250.000000	73.054
19500.000000	72.357
19750.000000	74.230
20000.000000	75.140
