* Measurement data measured by REW V5.31.1
* Source: EXCL: Micr√≥fono (Realtek(R) Audio), MICROPHONE (Volumen general), L, volume: 0,900. Timing signal peak level -7,0 dBFS, measurement signal peak level -7,0 dBFS
* Format: 512k Log Swept Sine, 1 sweep at -12,0 dBFS using an acoustic timing reference
* Dated: 14/08/2024 02:30:05 AM
* REW Settings:
*  C-weighting compensation: Off
*  Target level: 75.0 dB
* Note: Delay -0,0309 ms (-11 mm, -0,42 in) using estimated IR delay relative to Acoustic reference played from SPEAKER L with no timing offset
* Measurement: L 408
* Smoothing: None
* Frequency Step: 1/48 octave
* Start Frequency: 20.000 Hz
*
* Freq(Hz)	SPL(dB)	Phase(degrees)
20.000000	62.737	-14.1036
20.299999	62.593	-18.0413
20.600000	62.188	-20.3408
20.900000	61.704	-20.3116
21.200001	61.386	-18.1249
21.400000	61.371	-16.2054
21.799999	61.690	-13.6057
22.000000	61.903	-13.3813
22.400000	62.199	-14.5294
22.700001	62.214	-15.5564
23.000000	62.118	-15.7046
23.299999	62.053	-14.5825
23.600000	62.173	-12.5911
24.000000	62.704	-10.5068
24.299999	63.245	-10.4330
24.700001	63.900	-12.3511
25.000000	64.244	-14.5884
25.400000	64.495	-17.6094
25.799999	64.589	-19.9530
26.200001	64.620	-21.4958
26.500000	64.625	-22.2424
26.900000	64.599	-22.6663
27.200001	64.561	-22.3611
27.600000	64.570	-20.8574
28.000000	64.782	-18.4873
28.500000	65.401	-16.2574
29.000000	66.117	-16.5785
29.500000	66.578	-18.6517
30.000000	66.729	-20.1729
30.400000	66.793	-20.0729
30.700001	66.921	-19.4792
31.100000	67.231	-18.9253
31.500000	67.578	-19.4102
32.000000	67.816	-20.9387
32.500000	67.784	-21.4611
33.000000	67.812	-19.6293
33.500000	68.242	-17.2319
34.000000	68.892	-17.1886
34.500000	69.315	-19.4337
35.000000	69.341	-21.4375
35.500000	69.200	-20.9517
36.000000	69.336	-18.3870
36.500000	69.880	-16.6528
37.000000	70.504	-17.4564
37.500000	70.890	-19.9637
38.200001	70.943	-23.1208
38.700001	70.828	-23.5604
39.500000	70.975	-21.7795
40.000000	71.343	-21.4049
40.599998	71.730	-22.9148
41.200001	71.809	-24.7296
41.799999	71.759	-24.6136
42.500000	72.029	-23.1356
43.099998	72.410	-23.4978
43.700001	72.559	-24.5226
44.400002	72.650	-23.6567
45.000000	73.036	-22.5149
45.500000	73.431	-23.0894
46.200001	73.698	-25.0524
46.799999	73.754	-25.4742
47.500000	74.014	-25.0079
48.200001	74.358	-25.7328
48.700001	74.500	-26.4343
49.400002	74.687	-26.5935
50.000000	74.930	-26.8052
50.799999	75.156	-27.4983
51.500000	75.333	-27.0056
52.200001	75.730	-26.7224
53.000000	76.080	-28.5093
53.799999	76.064	-29.3353
54.500000	76.197	-28.0930
55.200001	76.595	-27.8079
56.000000	76.926	-29.3027
57.000000	77.086	-30.3859
58.000000	77.339	-30.5266
59.000000	77.680	-30.8801
60.000000	77.957	-31.7537
60.799999	78.077	-31.5275
61.500000	78.339	-30.6110
62.200001	78.720	-30.8340
63.000000	78.936	-32.1390
64.000000	79.068	-31.7544
65.000000	79.523	-32.2135
66.000000	79.609	-34.1714
67.000000	79.716	-33.3148
68.000000	80.134	-34.1475
69.000000	80.234	-35.1903
70.000000	80.550	-34.7338
71.000000	80.873	-36.1383
72.000000	80.993	-36.4310
73.000000	81.291	-36.4119
74.000000	81.534	-36.9578
75.000000	81.806	-37.4264
76.199997	82.033	-38.7659
77.500000	82.225	-38.9385
78.800003	82.614	-39.6162
80.000000	82.850	-40.6539
81.199997	83.152	-41.2422
82.500000	83.400	-42.5681
83.800003	83.603	-42.9954
85.000000	83.892	-43.8713
86.199997	83.987	-44.8309
87.500000	84.413	-44.5590
88.500000	84.702	-47.2771
90.000000	84.604	-47.9097
91.199997	84.948	-47.6868
92.500000	85.240	-48.0186
93.800003	85.593	-49.0209
95.000000	85.718	-49.5439
96.199997	86.034	-50.0181
97.500000	86.169	-51.4534
98.800003	86.386	-52.0708
100.000000	86.532	-53.1361
101.500000	86.769	-54.1965
103.000000	86.897	-54.8262
104.400002	87.165	-55.6426
106.000000	87.327	-56.6879
107.500000	87.591	-57.5166
109.000000	87.800	-59.2806
110.599998	88.012	-59.6271
112.000000	88.281	-60.7656
113.800003	88.467	-62.1854
115.000000	88.589	-62.4098
117.199997	88.852	-64.1654
118.000000	88.972	-64.6791
120.599998	89.292	-66.7908
122.000000	89.416	-67.8643
124.099998	89.685	-68.7023
125.000000	89.737	-69.3762
126.500000	89.936	-70.0728
128.000000	90.035	-71.6401
131.500000	90.348	-74.0922
132.000000	90.377	-74.3719
134.000000	90.619	-75.3746
136.000000	90.791	-77.0078
138.000000	90.921	-78.3883
140.000000	91.113	-79.6781
143.000000	91.334	-81.6212
145.000000	91.453	-82.9655
147.500000	91.666	-84.6489
150.000000	91.786	-86.1555
152.500000	91.925	-87.4783
155.000000	92.083	-89.4498
157.500000	92.176	-90.8157
160.000000	92.286	-92.4955
162.500000	92.476	-93.9480
165.000000	92.479	-95.2891
167.500000	92.607	-96.6780
170.000000	92.657	-97.8607
172.500000	92.704	-99.1560
175.000000	92.762	-100.5790
177.500000	92.801	-102.0055
180.000000	92.835	-103.2928
182.500000	92.935	-104.4392
185.000000	92.969	-105.5757
187.500000	93.005	-106.5331
190.000000	93.005	-107.7347
192.500000	93.045	-108.6208
195.000000	93.093	-109.7434
197.500000	93.100	-110.6801
200.000000	93.135	-111.6718
203.000000	93.185	-113.0247
206.000000	93.187	-113.7822
209.000000	93.239	-114.8479
212.000000	93.279	-115.9661
214.000000	93.293	-116.3538
218.000000	93.328	-118.1680
220.000000	93.381	-118.4519
224.000000	93.366	-119.8552
227.000000	93.400	-120.7900
230.000000	93.427	-121.4248
233.000000	93.402	-122.2225
236.000000	93.428	-122.9512
240.000000	93.456	-124.0004
243.000000	93.442	-124.8555
247.000000	93.482	-125.7234
250.000000	93.470	-126.2020
254.000000	93.462	-127.3413
258.000000	93.442	-128.0040
262.000000	93.412	-128.7277
265.000000	93.413	-129.2562
269.000000	93.399	-130.0620
272.000000	93.401	-130.6063
276.000000	93.366	-131.0696
280.000000	93.368	-131.9181
285.000000	93.325	-132.3107
290.000000	93.325	-133.0519
295.000000	93.305	-133.5720
300.000000	93.258	-134.1816
304.000000	93.261	-134.4993
307.000000	93.245	-135.0076
311.000000	93.220	-135.1392
315.000000	93.196	-135.3971
320.000000	93.183	-135.7975
325.000000	93.115	-136.2871
330.000000	93.092	-136.6450
335.000000	93.146	-136.8142
340.000000	93.148	-136.9343
345.000000	93.105	-137.0332
350.000000	93.094	-137.7045
355.000000	93.061	-137.5731
360.000000	93.036	-137.5966
365.000000	93.004	-137.8810
370.000000	93.024	-137.7325
375.000000	93.007	-137.7742
382.000000	92.946	-137.3717
387.000000	92.967	-137.7292
395.000000	92.961	-137.7004
400.000000	92.956	-137.3784
406.000000	92.970	-137.1160
412.000000	92.987	-136.9823
418.000000	93.058	-136.5579
425.000000	93.103	-136.1239
431.000000	93.253	-135.6901
437.000000	93.405	-135.7711
444.000000	93.629	-136.3715
450.000000	93.710	-137.5061
455.000000	93.774	-138.6360
462.000000	93.728	-139.7821
468.000000	93.624	-140.4814
475.000000	93.548	-140.8341
482.000000	93.434	-140.8921
487.000000	93.385	-141.0995
494.000000	93.328	-140.8754
500.000000	93.253	-140.8356
508.000000	93.191	-140.4275
515.000000	93.192	-140.0287
522.000000	93.207	-139.5854
530.000000	93.214	-139.1968
538.000000	93.227	-138.9181
545.000000	93.245	-138.7181
552.000000	93.265	-138.5776
560.000000	93.274	-138.2306
570.000000	93.361	-138.0631
580.000000	93.374	-137.7592
590.000000	93.375	-137.4194
600.000000	93.443	-137.2501
608.000000	93.440	-137.1550
615.000000	93.465	-136.8942
622.000000	93.479	-136.4288
630.000000	93.499	-136.4163
640.000000	93.568	-136.0261
650.000000	93.592	-136.3978
660.000000	93.635	-135.6410
670.000000	93.658	-135.5668
680.000000	93.664	-135.2415
690.000000	93.713	-134.8551
700.000000	93.708	-134.1392
710.000000	93.778	-134.3556
720.000000	93.770	-134.0005
730.000000	93.823	-133.5941
740.000000	93.871	-133.2632
750.000000	93.925	-132.9626
762.000000	93.984	-132.3085
775.000000	93.989	-131.9869
788.000000	94.082	-131.5509
800.000000	94.132	-131.2648
812.000000	94.165	-130.9114
825.000000	94.221	-130.2085
838.000000	94.270	-129.9678
850.000000	94.315	-129.5709
862.000000	94.363	-129.0349
875.000000	94.433	-128.8502
885.000000	94.444	-128.4543
900.000000	94.556	-127.9376
912.000000	94.584	-127.3629
925.000000	94.643	-126.7388
938.000000	94.677	-126.6104
950.000000	94.752	-126.0768
962.000000	94.790	-125.4774
975.000000	94.868	-125.3513
988.000000	94.924	-124.9041
1000.000000	94.994	-124.3867
1015.000000	95.078	-123.7866
1030.000000	95.157	-123.2751
1044.000000	95.203	-122.7739
1060.000000	95.275	-122.0137
1075.000000	95.356	-121.5994
1090.000000	95.434	-121.1675
1106.000000	95.512	-120.5271
1120.000000	95.590	-120.0375
1138.000000	95.700	-119.1450
1150.000000	95.788	-118.8228
1172.000000	95.913	-118.1808
1180.000000	95.933	-117.8016
1206.000000	96.129	-116.7476
1220.000000	96.229	-116.2556
1241.000000	96.370	-115.4097
1250.000000	96.449	-115.2555
1265.000000	96.546	-114.5520
1280.000000	96.685	-114.1538
1315.000000	96.997	-112.9005
1320.000000	97.044	-112.7178
1340.000000	97.220	-112.0500
1360.000000	97.387	-111.4712
1380.000000	97.577	-110.7844
1400.000000	97.785	-110.3542
1430.000000	98.102	-109.5945
1450.000000	98.282	-109.1221
1475.000000	98.556	-108.4041
1500.000000	98.829	-107.8789
1525.000000	99.108	-107.5203
1550.000000	99.398	-107.1208
1575.000000	99.690	-106.7567
1600.000000	99.984	-106.5977
1625.000000	100.315	-106.4067
1650.000000	100.595	-106.3331
1675.000000	100.928	-106.3649
1700.000000	101.248	-106.6233
1725.000000	101.559	-106.9000
1750.000000	101.871	-107.1622
1775.000000	102.199	-107.4845
1800.000000	102.530	-108.1752
1825.000000	102.787	-108.7321
1850.000000	103.151	-109.4000
1875.000000	103.445	-110.4865
1900.000000	103.777	-111.5116
1925.000000	104.079	-112.6382
1950.000000	104.392	-114.0343
1975.000000	104.564	-115.1362
2000.000000	104.883	-116.8179
2030.000000	105.176	-118.8538
2060.000000	105.457	-121.1467
2090.000000	105.688	-123.3658
2120.000000	105.916	-125.3157
2140.000000	106.031	-127.2349
2180.000000	106.316	-130.9956
2200.000000	106.343	-133.3170
2240.000000	106.389	-136.9478
2270.000000	106.404	-139.5897
2300.000000	106.330	-142.2367
2330.000000	106.196	-144.7534
2360.000000	106.084	-146.8813
2400.000000	105.912	-149.6425
2430.000000	105.674	-151.1499
2470.000000	105.425	-153.1921
2500.000000	105.202	-154.2550
2540.000000	104.898	-155.7581
2580.000000	104.712	-156.4283
2620.000000	104.417	-157.4230
2650.000000	104.182	-157.6649
2690.000000	103.989	-157.8096
2720.000000	103.877	-157.9944
2760.000000	103.604	-158.1278
2800.000000	103.402	-157.8197
2850.000000	103.130	-157.6721
2900.000000	102.937	-156.7856
2950.000000	102.770	-156.1041
3000.000000	102.630	-155.2985
3040.000000	102.526	-154.6414
3070.000000	102.433	-154.4082
3110.000000	102.301	-153.0844
3150.000000	102.258	-152.6592
3200.000000	102.117	-151.3539
3250.000000	102.047	-150.2937
3300.000000	101.906	-149.0859
3350.000000	101.880	-147.2419
3400.000000	101.824	-146.2083
3450.000000	101.775	-144.2242
3500.000000	101.819	-142.9512
3550.000000	101.822	-141.1772
3600.000000	101.876	-139.5321
3650.000000	101.986	-137.6604
3700.000000	102.170	-136.4415
3750.000000	102.267	-134.9104
3820.000000	102.556	-133.4263
3870.000000	102.743	-132.0873
3950.000000	103.114	-130.9675
4000.000000	103.372	-130.1042
4060.000000	103.756	-129.3164
4120.000000	104.076	-128.0664
4180.000000	104.297	-128.0583
4250.000000	104.745	-127.7563
4310.000000	105.103	-127.6256
4370.000000	105.600	-127.3472
4440.000000	106.000	-127.9330
4500.000000	106.448	-128.2832
4550.000000	106.725	-129.0000
4620.000000	107.183	-129.5366
4680.000000	107.718	-130.5758
4750.000000	108.237	-132.2745
4820.000000	108.767	-134.3362
4870.000000	109.229	-136.4056
4940.000000	109.548	-139.1755
5000.000000	109.959	-142.7584
5080.000000	109.951	-146.3033
5150.000000	110.436	-147.2174
5220.000000	110.977	-150.9348
5300.000000	111.428	-156.6670
5380.000000	111.643	-162.6011
5450.000000	111.902	-168.3127
5520.000000	111.957	-173.7179
5600.000000	111.824	179.2440
5700.000000	111.467	169.8013
5800.000000	110.771	161.6647
5900.000000	109.849	154.4860
6000.000000	108.851	149.1583
6080.000000	107.969	146.3386
6150.000000	107.224	143.8845
6220.000000	106.475	142.6768
6300.000000	105.693	141.0840
6400.000000	104.727	141.0001
6500.000000	103.865	140.4971
6600.000000	102.989	141.5410
6700.000000	102.225	142.6711
6800.000000	101.446	144.2451
6900.000000	100.880	146.8722
7000.000000	100.292	149.3262
7100.000000	99.882	151.8374
7200.000000	99.559	154.4114
7300.000000	99.260	156.7760
7400.000000	98.998	159.4082
7500.000000	98.849	161.6208
7620.000000	98.658	163.8795
7750.000000	98.593	165.3243
7880.000000	98.422	167.5082
8000.000000	98.418	168.6576
8120.000000	98.081	169.8545
8250.000000	97.963	170.8508
8380.000000	97.548	173.2676
8500.000000	97.420	175.6080
8620.000000	97.541	178.1796
8750.000000	97.893	-178.6890
8850.000000	98.249	-179.9926
9000.000000	98.845	179.5063
9120.000000	99.291	174.4664
9250.000000	99.304	168.3418
9380.000000	98.912	161.9033
9500.000000	98.025	157.1344
9620.000000	97.298	154.7325
9750.000000	96.464	153.7172
9880.000000	95.796	151.7616
10000.000000	95.063	151.0598
10150.000000	94.059	149.6614
10300.000000	92.766	149.4822
10440.000000	91.846	150.2313
10600.000000	90.634	151.5042
10750.000000	89.517	153.9432
10900.000000	87.963	158.0270
11060.000000	86.804	164.8649
11200.000000	86.301	171.3765
11380.000000	85.531	-179.9164
11500.000000	84.852	-176.5059
11720.000000	83.146	-160.8723
11800.000000	82.504	-150.3593
12060.000000	86.220	-117.9884
12200.000000	88.748	-117.8032
12410.000000	90.724	-123.7593
12500.000000	91.670	-126.2496
12650.000000	92.271	-131.1296
12800.000000	93.019	-138.7418
13150.000000	93.653	-155.1078
13200.000000	93.550	-155.1836
13400.000000	93.861	-165.8998
13600.000000	94.127	-177.2128
13800.000000	93.556	165.1259
14000.000000	91.779	144.6376
14300.000000	86.538	123.8206
14500.000000	82.274	120.0219
14750.000000	76.776	128.5652
15000.000000	73.616	147.0820
15250.000000	67.720	173.9498
15500.000000	66.863	-117.5123
15750.000000	73.596	-105.4504
16000.000000	75.861	-116.6477
16250.000000	76.429	-122.2966
16500.000000	76.019	-128.0732
16750.000000	76.013	-127.2255
17000.000000	74.654	-129.8903
17250.000000	74.040	-130.6687
17500.000000	72.075	-126.4382
17750.000000	70.465	-111.3893
18000.000000	70.554	-98.9196
18250.000000	69.750	-87.2408
18500.000000	70.266	-72.0645
18750.000000	72.037	-60.5017
19000.000000	73.330	-63.4202
19250.000000	74.788	-64.1648
19500.000000	74.957	-68.9799
19750.000000	74.146	-85.4614
20000.000000	73.802	-95.6650
