* Measurement data measured by REW V5.31.1
* Source: Frequency response averaged data
* Format: Averaged data produced from the rms magnitudes of R 399, R 400, R 402, R 403
* Dated: 14/08/2024 01:35:42 PM
* REW Settings:
*  C-weighting compensation: Off
*  Target level: 75.0 dB
* Note: Averaged data produced from the rms magnitudes of R 399, R 400, R 402, R 403
* Measurement: R AVG
* Smoothing: None
* Frequency Step: 1/48 octave
* Start Frequency: 20.000 Hz
*
* Freq(Hz)	SPL(dB)
20.000000	66.312
20.299999	66.602
20.600000	66.970
20.900000	67.372
21.200001	67.742
21.400000	67.942
21.799999	68.193
22.000000	68.248
22.400000	68.271
22.700001	68.296
23.000000	68.398
23.299999	68.604
23.600000	68.893
24.000000	69.302
24.299999	69.553
24.700001	69.767
25.000000	69.850
25.400000	69.920
25.799999	70.023
26.200001	70.197
26.500000	70.370
26.900000	70.631
27.200001	70.842
27.600000	71.141
28.000000	71.454
28.500000	71.829
29.000000	72.120
29.500000	72.300
30.000000	72.428
30.400000	72.562
30.700001	72.708
31.100000	72.958
31.500000	73.230
32.000000	73.525
32.500000	73.741
33.000000	73.931
33.500000	74.165
34.000000	74.435
34.500000	74.662
35.000000	74.798
35.500000	74.894
36.000000	75.054
36.500000	75.313
37.000000	75.596
37.500000	75.823
38.200001	76.061
38.700001	76.250
39.500000	76.608
40.000000	76.810
40.599998	77.013
41.200001	77.201
41.799999	77.399
42.500000	77.664
43.099998	77.915
43.700001	78.140
44.400002	78.338
45.000000	78.503
45.500000	78.670
46.200001	78.904
46.799999	79.076
47.500000	79.304
48.200001	79.598
48.700001	79.790
49.400002	79.981
50.000000	80.128
50.799999	80.379
51.500000	80.593
52.200001	80.768
53.000000	80.982
53.799999	81.216
54.500000	81.415
55.200001	81.645
56.000000	81.925
57.000000	82.167
58.000000	82.389
59.000000	82.660
60.000000	82.916
60.799999	83.142
61.500000	83.333
62.200001	83.500
63.000000	83.668
64.000000	83.893
65.000000	84.177
66.000000	84.401
67.000000	84.598
68.000000	84.840
69.000000	85.012
70.000000	85.207
71.000000	85.448
72.000000	85.642
73.000000	85.845
74.000000	86.083
75.000000	86.284
76.199997	86.511
77.500000	86.765
78.800003	86.992
80.000000	87.224
81.199997	87.401
82.500000	87.632
83.800003	87.895
85.000000	88.055
86.199997	88.277
87.500000	88.472
88.500000	88.651
90.000000	88.884
91.199997	89.066
92.500000	89.258
93.800003	89.454
95.000000	89.602
96.199997	89.767
97.500000	89.962
98.800003	90.124
100.000000	90.284
101.500000	90.460
103.000000	90.663
104.400002	90.829
106.000000	91.024
107.500000	91.183
109.000000	91.341
110.599998	91.524
112.000000	91.670
113.800003	91.852
115.000000	91.978
117.199997	92.174
118.000000	92.262
120.599998	92.495
122.000000	92.617
124.099998	92.802
125.000000	92.886
126.500000	92.991
128.000000	93.098
131.500000	93.366
132.000000	93.397
134.000000	93.568
136.000000	93.689
138.000000	93.820
140.000000	93.956
143.000000	94.130
145.000000	94.245
147.500000	94.371
150.000000	94.512
152.500000	94.634
155.000000	94.749
157.500000	94.858
160.000000	94.982
162.500000	95.051
165.000000	95.115
167.500000	95.183
170.000000	95.249
172.500000	95.295
175.000000	95.353
177.500000	95.402
180.000000	95.455
182.500000	95.489
185.000000	95.516
187.500000	95.539
190.000000	95.576
192.500000	95.611
195.000000	95.629
197.500000	95.649
200.000000	95.683
203.000000	95.721
206.000000	95.755
209.000000	95.789
212.000000	95.816
214.000000	95.848
218.000000	95.868
220.000000	95.888
224.000000	95.923
227.000000	95.935
230.000000	95.951
233.000000	95.960
236.000000	95.973
240.000000	96.003
243.000000	96.000
247.000000	96.015
250.000000	96.027
254.000000	96.032
258.000000	96.038
262.000000	96.024
265.000000	96.034
269.000000	96.045
272.000000	96.039
276.000000	96.028
280.000000	96.045
285.000000	96.040
290.000000	96.038
295.000000	96.042
300.000000	96.040
304.000000	96.032
307.000000	96.019
311.000000	96.025
315.000000	96.025
320.000000	96.028
325.000000	96.018
330.000000	96.018
335.000000	96.011
340.000000	96.008
345.000000	96.007
350.000000	96.005
355.000000	95.997
360.000000	95.997
365.000000	95.996
370.000000	95.979
375.000000	95.974
382.000000	95.960
387.000000	95.955
395.000000	95.951
400.000000	95.933
406.000000	95.918
412.000000	95.890
418.000000	95.877
425.000000	95.903
431.000000	95.936
437.000000	95.956
444.000000	95.983
450.000000	95.998
455.000000	96.015
462.000000	96.036
468.000000	96.056
475.000000	96.111
482.000000	96.171
487.000000	96.205
494.000000	96.265
500.000000	96.316
508.000000	96.377
515.000000	96.430
522.000000	96.478
530.000000	96.529
538.000000	96.560
545.000000	96.607
552.000000	96.647
560.000000	96.691
570.000000	96.728
580.000000	96.792
590.000000	96.840
600.000000	96.874
608.000000	96.907
615.000000	96.940
622.000000	96.977
630.000000	96.998
640.000000	97.041
650.000000	97.080
660.000000	97.124
670.000000	97.175
680.000000	97.208
690.000000	97.236
700.000000	97.276
710.000000	97.303
720.000000	97.335
730.000000	97.379
740.000000	97.418
750.000000	97.458
762.000000	97.506
775.000000	97.571
788.000000	97.615
800.000000	97.676
812.000000	97.727
825.000000	97.784
838.000000	97.827
850.000000	97.885
862.000000	97.929
875.000000	97.981
885.000000	98.033
900.000000	98.101
912.000000	98.142
925.000000	98.204
938.000000	98.265
950.000000	98.321
962.000000	98.384
975.000000	98.445
988.000000	98.503
1000.000000	98.553
1015.000000	98.636
1030.000000	98.714
1044.000000	98.784
1060.000000	98.873
1075.000000	98.945
1090.000000	99.034
1106.000000	99.119
1120.000000	99.223
1138.000000	99.328
1150.000000	99.412
1172.000000	99.565
1180.000000	99.616
1206.000000	99.810
1220.000000	99.916
1241.000000	100.090
1250.000000	100.162
1265.000000	100.290
1280.000000	100.425
1315.000000	100.761
1320.000000	100.818
1340.000000	101.011
1360.000000	101.221
1380.000000	101.440
1400.000000	101.646
1430.000000	101.981
1450.000000	102.210
1475.000000	102.504
1500.000000	102.813
1525.000000	103.099
1550.000000	103.412
1575.000000	103.718
1600.000000	104.022
1625.000000	104.340
1650.000000	104.634
1675.000000	104.944
1700.000000	105.213
1725.000000	105.458
1750.000000	105.708
1775.000000	105.957
1800.000000	106.172
1825.000000	106.323
1850.000000	106.538
1875.000000	106.686
1900.000000	106.825
1925.000000	106.935
1950.000000	107.030
1975.000000	107.047
2000.000000	107.130
2030.000000	107.146
2060.000000	107.141
2090.000000	107.126
2120.000000	107.131
2140.000000	107.085
2180.000000	107.014
2200.000000	106.928
2240.000000	106.714
2270.000000	106.553
2300.000000	106.390
2330.000000	106.156
2360.000000	105.944
2400.000000	105.674
2430.000000	105.429
2470.000000	105.138
2500.000000	104.923
2540.000000	104.622
2580.000000	104.420
2620.000000	104.148
2650.000000	103.943
2690.000000	103.761
2720.000000	103.653
2760.000000	103.417
2800.000000	103.252
2850.000000	103.017
2900.000000	102.863
2950.000000	102.720
3000.000000	102.606
3040.000000	102.539
3070.000000	102.460
3110.000000	102.349
3150.000000	102.337
3200.000000	102.213
3250.000000	102.168
3300.000000	102.043
3350.000000	102.047
3400.000000	102.012
3450.000000	102.025
3500.000000	102.094
3550.000000	102.122
3600.000000	102.225
3650.000000	102.361
3700.000000	102.599
3750.000000	102.721
3820.000000	103.063
3870.000000	103.271
3950.000000	103.665
4000.000000	103.950
4060.000000	104.334
4120.000000	104.685
4180.000000	104.947
4250.000000	105.412
4310.000000	105.775
4370.000000	106.271
4440.000000	106.671
4500.000000	107.115
4550.000000	107.390
4620.000000	107.846
4680.000000	108.349
4750.000000	108.836
4820.000000	109.318
4870.000000	109.732
4940.000000	110.080
5000.000000	110.521
5080.000000	110.897
5150.000000	111.273
5220.000000	111.684
5300.000000	112.107
5380.000000	112.316
5450.000000	112.481
5520.000000	112.468
5600.000000	112.300
5700.000000	111.889
5800.000000	111.235
5900.000000	110.462
6000.000000	109.611
6080.000000	108.859
6150.000000	108.210
6220.000000	107.581
6300.000000	106.873
6400.000000	106.032
6500.000000	105.255
6600.000000	104.500
6700.000000	103.777
6800.000000	103.105
6900.000000	102.522
7000.000000	101.953
7100.000000	101.440
7200.000000	100.953
7300.000000	100.431
7400.000000	99.938
7500.000000	99.549
7620.000000	99.239
7750.000000	99.010
7880.000000	98.896
8000.000000	98.893
8120.000000	98.859
8250.000000	98.931
8380.000000	99.062
8500.000000	99.290
8620.000000	99.634
8750.000000	100.103
8850.000000	100.577
9000.000000	101.372
9120.000000	102.081
9250.000000	102.651
9380.000000	102.880
9500.000000	102.545
9620.000000	101.841
9750.000000	100.611
9880.000000	99.300
10000.000000	98.059
10150.000000	96.639
10300.000000	95.327
10440.000000	94.321
10600.000000	93.251
10750.000000	92.284
10900.000000	91.052
11060.000000	89.426
11200.000000	86.330
11380.000000	77.515
11500.000000	83.174
11720.000000	87.512
11800.000000	88.127
12060.000000	88.877
12200.000000	89.511
12410.000000	90.916
12500.000000	91.725
12650.000000	92.415
12800.000000	93.261
13150.000000	94.920
13200.000000	95.042
13400.000000	95.775
13600.000000	95.660
13800.000000	94.449
14000.000000	92.188
14300.000000	87.356
14500.000000	84.049
14750.000000	81.160
15000.000000	79.711
15250.000000	78.923
15500.000000	79.044
15750.000000	79.705
16000.000000	79.898
16250.000000	80.085
16500.000000	79.869
16750.000000	78.841
17000.000000	78.506
17250.000000	77.851
17500.000000	77.294
17750.000000	76.655
18000.000000	76.247
18250.000000	76.752
18500.000000	77.840
18750.000000	79.302
19000.000000	79.032
19250.000000	77.349
19500.000000	75.542
19750.000000	73.979
20000.000000	73.619
