* Measurement data measured by REW V5.31.1
* Source: EXCL: Micr√≥fono (Realtek(R) Audio), MICROPHONE (Volumen general), L, volume: 0,900. Timing signal peak level -16,4 dBFS, measurement signal peak level -14,8 dBFS
* Format: 512k Log Swept Sine, 1 sweep at -12,0 dBFS using an acoustic timing reference
* Dated: 29/07/2024 01:51:48 AM
* REW Settings:
*  C-weighting compensation: Off
*  Target level: 75.0 dB
* Note: Delay -0,0234 ms (-8,0 mm, -0,32 in) using estimated IR delay relative to Acoustic reference played from SPEAKER R with no timing offset
* Measurement: R 119
* Smoothing: None
* Frequency Step: 1/48 octave
* Start Frequency: 20.000 Hz
*
* Freq(Hz)	SPL(dB)	Phase(degrees)
20.000000	101.272	-148.6026
20.299999	101.295	-149.3004
20.600000	101.319	-149.9978
20.900000	101.342	-150.6998
21.200001	101.362	-151.4050
21.400000	101.373	-151.8734
21.799999	101.391	-152.7924
22.000000	101.397	-153.2372
22.400000	101.407	-154.0911
22.700001	101.415	-154.7019
23.000000	101.423	-155.2952
23.299999	101.432	-155.8806
23.600000	101.441	-156.4655
24.000000	101.451	-157.2462
24.299999	101.456	-157.8247
24.700001	101.459	-158.5721
25.000000	101.462	-159.1100
25.400000	101.467	-159.8045
25.799999	101.474	-160.4930
26.200001	101.481	-161.1902
26.500000	101.484	-161.7161
26.900000	101.485	-162.4051
27.200001	101.484	-162.9031
27.600000	101.482	-163.5413
28.000000	101.482	-164.1641
28.500000	101.481	-164.9423
29.000000	101.476	-165.7071
29.500000	101.467	-166.4209
30.000000	101.462	-167.0840
30.400000	101.462	-167.6123
30.700001	101.464	-168.0246
31.100000	101.462	-168.5956
31.500000	101.455	-169.1643
32.000000	101.440	-169.8264
32.500000	101.427	-170.4309
33.000000	101.420	-171.0305
33.500000	101.411	-171.6597
34.000000	101.396	-172.2904
34.500000	101.377	-172.8776
35.000000	101.361	-173.4226
35.500000	101.349	-173.9696
36.000000	101.339	-174.5494
36.500000	101.322	-175.1455
37.000000	101.298	-175.7134
37.500000	101.273	-176.2217
38.200001	101.247	-176.8566
38.700001	101.239	-177.3213
39.500000	101.226	-178.1888
40.000000	101.204	-178.7631
40.599998	101.167	-179.3710
41.200001	101.133	-179.8707
41.799999	101.111	179.6492
42.500000	101.088	179.0329
43.099998	101.063	178.4935
43.700001	101.036	177.9733
44.400002	101.003	177.3708
45.000000	100.971	176.8753
45.500000	100.945	176.5012
46.200001	100.917	176.0069
46.799999	100.901	175.5424
47.500000	100.876	174.9359
48.200001	100.839	174.3493
48.700001	100.809	173.9852
49.400002	100.773	173.5251
50.000000	100.746	173.1329
50.799999	100.710	172.6219
51.500000	100.681	172.1860
52.200001	100.652	171.6994
53.000000	100.602	171.1578
53.799999	100.555	170.7408
54.500000	100.528	170.3246
55.200001	100.490	169.8271
56.000000	100.437	169.3600
57.000000	100.391	168.7651
58.000000	100.321	168.0986
59.000000	100.261	167.6924
60.000000	100.229	167.1405
60.799999	100.184	166.6337
61.500000	100.136	166.2804
62.200001	100.094	166.0000
63.000000	100.059	165.6640
64.000000	100.010	165.1157
65.000000	99.941	164.6527
66.000000	99.883	164.2340
67.000000	99.821	163.8119
68.000000	99.770	163.3932
69.000000	99.707	162.9161
70.000000	99.646	162.5834
71.000000	99.601	162.1982
72.000000	99.552	161.7494
73.000000	99.485	161.2742
74.000000	99.410	160.9579
75.000000	99.349	160.6133
76.199997	99.253	160.2767
77.500000	99.194	159.9664
78.800003	99.117	159.4198
80.000000	99.032	158.9270
81.199997	98.933	158.5860
82.500000	98.853	158.3113
83.800003	98.770	157.8872
85.000000	98.665	157.6567
86.199997	98.592	157.4461
87.500000	98.475	157.2133
88.500000	98.416	157.0849
90.000000	98.251	156.8504
91.199997	98.178	156.9167
92.500000	98.032	156.7720
93.800003	97.910	156.9998
95.000000	97.767	157.4137
96.199997	97.704	158.0485
97.500000	97.616	158.8278
98.800003	97.687	160.0184
100.000000	97.817	160.1577
101.500000	97.926	160.0881
103.000000	97.966	159.1581
104.400002	97.866	159.6819
106.000000	98.035	159.8570
107.500000	98.073	159.0452
109.000000	98.104	158.3201
110.599998	98.077	157.3832
112.000000	98.059	156.3176
113.800003	97.918	155.6389
115.000000	97.858	155.2121
117.199997	97.764	154.6848
118.000000	97.713	154.3949
120.599998	97.563	153.8528
122.000000	97.487	153.5925
124.099998	97.368	153.2303
125.000000	97.314	153.1565
126.500000	97.244	152.9762
128.000000	97.153	152.8667
131.500000	96.963	152.4092
132.000000	96.937	152.3961
134.000000	96.842	152.1953
136.000000	96.731	152.1220
138.000000	96.628	152.1371
140.000000	96.535	151.9937
143.000000	96.339	152.1365
145.000000	96.254	152.5029
147.500000	96.127	152.5852
150.000000	96.017	152.8874
152.500000	95.928	153.6169
155.000000	95.858	154.2061
157.500000	95.794	154.6910
160.000000	95.799	155.0457
162.500000	95.705	155.5699
165.000000	95.785	156.2629
167.500000	95.805	156.1491
170.000000	95.848	156.1163
172.500000	95.855	155.7009
175.000000	95.917	155.8298
177.500000	95.848	155.1514
180.000000	95.756	154.5459
182.500000	95.691	154.0999
185.000000	95.641	153.6963
187.500000	95.579	153.2803
190.000000	95.476	152.9439
192.500000	95.384	152.8970
195.000000	95.287	152.6910
197.500000	95.192	152.6312
200.000000	95.080	152.4425
203.000000	94.981	152.3659
206.000000	94.866	152.3519
209.000000	94.795	152.3271
212.000000	94.705	152.4457
214.000000	94.666	152.5392
218.000000	94.529	152.6515
220.000000	94.452	152.7537
224.000000	94.342	152.9361
227.000000	94.262	153.0281
230.000000	94.189	153.3455
233.000000	94.142	153.4706
236.000000	94.041	153.6719
240.000000	93.942	154.0171
243.000000	93.892	154.3515
247.000000	93.831	154.6699
250.000000	93.789	154.9343
254.000000	93.702	155.1956
258.000000	93.633	155.3137
262.000000	93.605	155.4874
265.000000	93.562	155.7883
269.000000	93.476	155.7085
272.000000	93.426	155.9940
276.000000	93.327	156.0081
280.000000	93.260	156.4075
285.000000	93.156	156.5172
290.000000	93.079	156.9255
295.000000	92.961	157.3457
300.000000	92.865	157.4674
304.000000	92.781	157.9155
307.000000	92.721	158.1168
311.000000	92.696	158.5531
315.000000	92.623	158.8009
320.000000	92.540	159.1230
325.000000	92.494	159.5942
330.000000	92.440	160.0704
335.000000	92.366	160.3425
340.000000	92.244	160.7092
345.000000	92.170	161.0466
350.000000	92.144	161.5056
355.000000	92.076	162.0512
360.000000	91.992	162.2541
365.000000	91.953	162.7116
370.000000	91.881	163.0480
375.000000	91.817	163.6233
382.000000	91.723	164.1686
387.000000	91.686	164.8084
395.000000	91.632	165.2167
400.000000	91.550	165.9886
406.000000	91.497	166.2169
412.000000	91.432	166.7397
418.000000	91.375	167.4134
425.000000	91.334	168.1454
431.000000	91.264	168.5498
437.000000	91.231	169.1482
444.000000	91.105	169.8222
450.000000	91.096	169.9280
455.000000	91.072	170.7106
462.000000	91.007	171.2763
468.000000	90.978	171.8378
475.000000	90.960	172.2685
482.000000	90.918	173.3811
487.000000	90.830	173.9871
494.000000	90.864	174.2460
500.000000	90.801	174.9631
508.000000	90.739	175.4187
515.000000	90.721	176.1107
522.000000	90.719	176.9790
530.000000	90.638	177.3487
538.000000	90.609	178.2080
545.000000	90.620	178.7603
552.000000	90.568	179.6314
560.000000	90.564	-179.8553
570.000000	90.494	-178.7368
580.000000	90.453	-177.9788
590.000000	90.439	-176.9342
600.000000	90.421	-175.9718
608.000000	90.423	-175.4664
615.000000	90.407	-174.6779
622.000000	90.413	-173.9979
630.000000	90.377	-173.0977
640.000000	90.366	-172.2014
650.000000	90.402	-171.2648
660.000000	90.336	-170.3640
670.000000	90.384	-169.1699
680.000000	90.366	-168.6135
690.000000	90.405	-167.2783
700.000000	90.398	-166.7523
710.000000	90.426	-165.3212
720.000000	90.416	-164.7774
730.000000	90.464	-163.6895
740.000000	90.496	-162.4333
750.000000	90.524	-161.4845
762.000000	90.564	-160.5071
775.000000	90.647	-159.1625
788.000000	90.715	-157.7848
800.000000	90.785	-156.6346
812.000000	90.835	-155.5430
825.000000	90.936	-154.5118
838.000000	91.028	-153.7076
850.000000	91.141	-152.6564
862.000000	91.238	-151.6598
875.000000	91.340	-150.5979
885.000000	91.417	-150.0458
900.000000	91.554	-148.9219
912.000000	91.652	-148.1046
925.000000	91.754	-147.3550
938.000000	91.921	-146.7738
950.000000	92.009	-146.0929
962.000000	92.109	-145.3524
975.000000	92.193	-144.7839
988.000000	92.359	-144.1683
1000.000000	92.494	-143.4822
1015.000000	92.600	-143.0736
1030.000000	92.718	-142.5868
1044.000000	92.827	-141.7817
1060.000000	93.001	-141.1219
1075.000000	93.118	-140.6741
1090.000000	93.212	-140.2237
1106.000000	93.353	-139.6299
1120.000000	93.500	-139.3555
1138.000000	93.638	-138.5737
1150.000000	93.744	-138.3661
1172.000000	93.938	-137.9625
1180.000000	94.003	-137.7650
1206.000000	94.196	-137.1070
1220.000000	94.362	-136.6832
1241.000000	94.528	-136.5249
1250.000000	94.571	-136.3511
1265.000000	94.706	-135.9121
1280.000000	94.847	-135.6135
1315.000000	95.203	-135.0733
1320.000000	95.217	-134.9278
1340.000000	95.422	-134.8056
1360.000000	95.589	-134.5666
1380.000000	95.783	-134.1523
1400.000000	95.969	-134.0395
1430.000000	96.268	-133.7328
1450.000000	96.475	-133.7868
1475.000000	96.727	-133.7066
1500.000000	96.961	-133.7731
1525.000000	97.240	-134.0918
1550.000000	97.483	-134.5668
1575.000000	97.711	-135.1439
1600.000000	97.910	-136.1465
1625.000000	98.011	-137.3405
1650.000000	97.911	-137.8885
1675.000000	97.778	-136.8750
1700.000000	97.987	-134.2808
1725.000000	98.370	-132.5295
1750.000000	98.850	-132.1136
1775.000000	99.284	-132.4808
1800.000000	99.699	-133.0061
1825.000000	100.083	-133.9556
1850.000000	100.436	-135.0080
1875.000000	100.775	-136.3502
1900.000000	101.117	-137.7472
1925.000000	101.411	-139.2850
1950.000000	101.698	-141.0922
1975.000000	101.972	-142.9933
2000.000000	102.227	-145.1408
2030.000000	102.495	-147.8297
2060.000000	102.726	-150.6973
2090.000000	102.912	-153.7773
2120.000000	103.045	-156.8810
2140.000000	103.089	-159.0113
2180.000000	103.142	-163.3281
2200.000000	103.124	-165.4747
2240.000000	103.023	-169.4546
2270.000000	102.875	-172.4047
2300.000000	102.716	-175.0747
2330.000000	102.512	-177.5868
2360.000000	102.292	-179.8804
2400.000000	101.943	177.4297
2430.000000	101.678	175.7050
2470.000000	101.286	173.8456
2500.000000	101.011	172.5515
2540.000000	100.634	171.2574
2580.000000	100.272	170.2369
2620.000000	99.908	169.2644
2650.000000	99.650	168.6034
2690.000000	99.282	168.3443
2720.000000	99.016	168.0106
2760.000000	98.675	168.0038
2800.000000	98.366	168.1111
2850.000000	98.028	168.3018
2900.000000	97.712	168.1717
2950.000000	97.357	167.5232
3000.000000	96.933	166.3981
3040.000000	96.459	165.6076
3070.000000	96.020	164.7292
3110.000000	95.139	164.3356
3150.000000	93.944	165.8187
3200.000000	92.243	175.0299
3250.000000	92.070	-167.7436
3300.000000	93.375	-158.8346
3350.000000	94.399	-156.4770
3400.000000	94.958	-156.3861
3450.000000	95.330	-156.4467
3500.000000	95.533	-155.9283
3550.000000	95.710	-155.4313
3600.000000	95.825	-154.7695
3650.000000	95.995	-154.0842
3700.000000	96.113	-153.5992
3750.000000	96.201	-152.7806
3820.000000	96.326	-151.6158
3870.000000	96.444	-150.4827
3950.000000	96.614	-149.1210
4000.000000	96.780	-147.8040
4060.000000	96.971	-146.5803
4120.000000	97.215	-145.1804
4180.000000	97.526	-144.1462
4250.000000	97.907	-142.8280
4310.000000	98.253	-141.7384
4370.000000	98.641	-140.9879
4440.000000	99.134	-140.2684
4500.000000	99.602	-139.8982
4550.000000	100.031	-139.7793
4620.000000	100.671	-140.2520
4680.000000	101.246	-141.1461
4750.000000	101.973	-142.8001
4820.000000	102.696	-145.4516
4870.000000	103.194	-148.0143
4940.000000	103.844	-152.7984
5000.000000	104.294	-157.7890
5080.000000	104.642	-165.5656
5150.000000	104.658	-173.0162
5220.000000	104.414	179.8240
5300.000000	103.828	172.5915
5380.000000	103.055	166.8211
5450.000000	102.300	163.2399
5520.000000	101.514	160.7309
5600.000000	100.659	159.0124
5700.000000	99.637	158.4083
5800.000000	98.722	158.7816
5900.000000	97.966	160.1116
6000.000000	97.261	162.0235
6080.000000	96.770	163.9060
6150.000000	96.388	165.6027
6220.000000	96.086	167.5605
6300.000000	95.749	169.8784
6400.000000	95.469	173.0206
6500.000000	95.334	176.3836
6600.000000	95.206	179.1176
6700.000000	95.159	-177.4670
6800.000000	95.243	-174.3899
6900.000000	95.355	-171.2444
7000.000000	95.611	-168.1875
7100.000000	95.967	-165.4972
7200.000000	96.434	-163.3336
7300.000000	96.976	-161.4659
7400.000000	97.618	-160.0673
7500.000000	98.437	-159.9840
7620.000000	99.574	-161.2442
7750.000000	100.952	-166.0624
7880.000000	102.282	-176.4989
8000.000000	102.786	168.2415
8120.000000	101.987	151.6342
8250.000000	99.982	139.2543
8380.000000	97.558	134.1249
8500.000000	95.510	135.8161
8620.000000	94.259	143.3088
8750.000000	94.250	145.0185
8850.000000	93.599	142.4202
9000.000000	92.122	142.7068
9120.000000	91.131	144.7413
9250.000000	90.109	148.6829
9380.000000	89.117	153.0930
9500.000000	88.526	157.4960
9620.000000	87.945	162.4480
9750.000000	87.562	167.0724
9880.000000	87.094	172.4193
10000.000000	86.698	176.5448
10150.000000	86.534	-176.2635
10300.000000	86.482	-170.1492
10440.000000	86.564	-165.0552
10600.000000	86.656	-158.9571
10750.000000	86.914	-153.5493
10900.000000	87.378	-148.3037
11060.000000	87.968	-142.9269
11200.000000	88.602	-139.8747
11380.000000	89.833	-135.7328
11500.000000	90.813	-135.5119
11720.000000	92.957	-138.6729
11800.000000	93.715	-141.8514
12060.000000	95.235	-164.1879
12200.000000	94.614	-178.3302
12410.000000	92.416	168.2259
12500.000000	91.322	165.9609
12650.000000	89.712	164.3773
12800.000000	88.173	165.5221
13150.000000	85.592	173.4272
13200.000000	85.348	174.8243
13400.000000	84.434	-178.6555
13600.000000	83.590	-171.6707
13800.000000	83.167	-165.0893
14000.000000	83.112	-157.3732
14300.000000	83.391	-147.8368
14500.000000	84.229	-142.0080
14750.000000	85.496	-137.9730
15000.000000	88.061	-144.3178
15250.000000	81.965	-171.0068
15500.000000	87.194	-143.1626
15750.000000	88.377	-166.7785
16000.000000	86.700	176.1065
16250.000000	84.622	169.6168
16500.000000	83.283	168.0938
16750.000000	81.961	169.4964
17000.000000	81.048	174.8042
17250.000000	81.595	179.1499
17500.000000	82.001	170.9359
17750.000000	81.649	158.8799
18000.000000	79.826	146.8982
18250.000000	77.197	142.0712
18500.000000	74.160	141.4792
18750.000000	72.807	144.6505
19000.000000	68.940	147.6365
19250.000000	69.586	156.9764
19500.000000	68.271	167.0728
19750.000000	66.406	161.1959
