* Measurement data measured by REW V5.31.1
* Source: Frequency response averaged data
* Format: Averaged data produced from the rms magnitudes of R 383, R 384, R 385, R 386
* Dated: 9/08/2024 02:48:29 AM
* REW Settings:
*  C-weighting compensation: Off
*  Target level: 75.0 dB
* Note: Averaged data produced from the rms magnitudes of R 383, R 384, R 385, R 386
* Measurement: R AVG
* Smoothing: None
* Frequency Step: 1/48 octave
* Start Frequency: 20.000 Hz
*
* Freq(Hz)	SPL(dB)
20.000000	80.877
20.299999	81.077
20.600000	81.125
20.900000	81.036
21.200001	80.868
21.400000	80.758
21.799999	80.673
22.000000	80.729
22.400000	81.008
22.700001	81.274
23.000000	81.513
23.299999	81.688
23.600000	81.805
24.000000	81.932
24.299999	82.048
24.700001	82.248
25.000000	82.407
25.400000	82.582
25.799999	82.691
26.200001	82.767
26.500000	82.836
26.900000	82.970
27.200001	83.097
27.600000	83.266
28.000000	83.411
28.500000	83.555
29.000000	83.708
29.500000	83.896
30.000000	84.092
30.400000	84.226
30.700001	84.307
31.100000	84.389
31.500000	84.455
32.000000	84.534
32.500000	84.628
33.000000	84.739
33.500000	84.856
34.000000	84.961
34.500000	85.057
35.000000	85.168
35.500000	85.311
36.000000	85.475
36.500000	85.625
37.000000	85.739
37.500000	85.823
38.200001	85.941
38.700001	86.047
39.500000	86.227
40.000000	86.326
40.599998	86.438
41.200001	86.557
41.799999	86.673
42.500000	86.783
43.099998	86.863
43.700001	86.953
44.400002	87.088
45.000000	87.214
45.500000	87.296
46.200001	87.337
46.799999	87.320
47.500000	87.324
48.200001	87.393
48.700001	87.465
49.400002	87.572
50.000000	87.670
50.799999	87.797
51.500000	87.900
52.200001	87.992
53.000000	88.081
53.799999	88.190
54.500000	88.276
55.200001	88.319
56.000000	88.387
57.000000	88.403
58.000000	88.374
59.000000	88.748
60.000000	88.783
60.799999	88.584
61.500000	88.615
62.200001	88.699
63.000000	88.660
64.000000	88.592
65.000000	88.555
66.000000	88.540
67.000000	88.576
68.000000	88.635
69.000000	88.749
70.000000	88.837
71.000000	88.892
72.000000	88.924
73.000000	88.941
74.000000	89.023
75.000000	89.054
76.199997	89.102
77.500000	89.162
78.800003	89.185
80.000000	89.137
81.199997	89.140
82.500000	89.147
83.800003	89.160
85.000000	89.163
86.199997	89.183
87.500000	89.183
88.500000	89.186
90.000000	89.232
91.199997	89.280
92.500000	89.318
93.800003	89.373
95.000000	89.398
96.199997	89.427
97.500000	89.452
98.800003	89.496
100.000000	89.499
101.500000	89.503
103.000000	89.508
104.400002	89.529
106.000000	89.524
107.500000	89.524
109.000000	89.516
110.599998	89.518
112.000000	89.492
113.800003	89.490
115.000000	89.425
117.199997	89.338
118.000000	89.329
120.599998	89.204
122.000000	89.309
124.099998	89.311
125.000000	89.259
126.500000	89.246
128.000000	89.167
131.500000	89.116
132.000000	89.109
134.000000	89.089
136.000000	89.121
138.000000	89.048
140.000000	89.084
143.000000	89.014
145.000000	88.975
147.500000	88.933
150.000000	88.862
152.500000	88.862
155.000000	88.791
157.500000	88.699
160.000000	88.659
162.500000	88.627
165.000000	88.616
167.500000	88.493
170.000000	88.418
172.500000	88.388
175.000000	88.312
177.500000	88.223
180.000000	88.158
182.500000	87.969
185.000000	88.085
187.500000	87.821
190.000000	87.788
192.500000	87.773
195.000000	87.710
197.500000	87.557
200.000000	87.467
203.000000	87.461
206.000000	87.458
209.000000	87.453
212.000000	87.325
214.000000	87.268
218.000000	87.121
220.000000	87.170
224.000000	87.061
227.000000	86.995
230.000000	86.942
233.000000	86.852
236.000000	86.817
240.000000	86.705
243.000000	86.692
247.000000	86.580
250.000000	86.528
254.000000	86.530
258.000000	86.365
262.000000	86.292
265.000000	86.227
269.000000	86.110
272.000000	85.863
276.000000	85.751
280.000000	85.592
285.000000	85.398
290.000000	85.384
295.000000	85.374
300.000000	85.384
304.000000	85.413
307.000000	85.483
311.000000	85.468
315.000000	85.490
320.000000	85.456
325.000000	85.448
330.000000	85.468
335.000000	85.467
340.000000	85.578
345.000000	85.437
350.000000	85.575
355.000000	85.583
360.000000	85.630
365.000000	85.624
370.000000	85.669
375.000000	85.693
382.000000	85.720
387.000000	85.822
395.000000	85.868
400.000000	85.916
406.000000	86.033
412.000000	86.138
418.000000	86.252
425.000000	86.243
431.000000	86.344
437.000000	86.545
444.000000	86.653
450.000000	86.875
455.000000	86.872
462.000000	87.037
468.000000	87.251
475.000000	87.346
482.000000	87.424
487.000000	87.476
494.000000	87.641
500.000000	87.819
508.000000	87.950
515.000000	88.067
522.000000	88.297
530.000000	88.472
538.000000	88.721
545.000000	88.902
552.000000	88.964
560.000000	89.122
570.000000	89.273
580.000000	89.497
590.000000	89.743
600.000000	89.991
608.000000	90.101
615.000000	90.231
622.000000	90.331
630.000000	90.537
640.000000	90.768
650.000000	90.906
660.000000	91.020
670.000000	91.177
680.000000	91.353
690.000000	91.465
700.000000	91.656
710.000000	91.830
720.000000	91.834
730.000000	91.978
740.000000	92.157
750.000000	92.251
762.000000	92.360
775.000000	92.503
788.000000	92.579
800.000000	92.733
812.000000	92.686
825.000000	92.854
838.000000	92.988
850.000000	93.161
862.000000	93.312
875.000000	93.546
885.000000	93.699
900.000000	93.916
912.000000	94.098
925.000000	94.407
938.000000	94.602
950.000000	94.856
962.000000	95.132
975.000000	95.353
988.000000	95.550
1000.000000	95.771
1015.000000	96.068
1030.000000	96.366
1044.000000	96.647
1060.000000	96.989
1075.000000	97.227
1090.000000	97.452
1106.000000	97.512
1120.000000	97.640
1138.000000	97.682
1150.000000	97.758
1172.000000	98.004
1180.000000	98.012
1206.000000	98.461
1220.000000	98.786
1241.000000	99.184
1250.000000	99.303
1265.000000	99.595
1280.000000	99.803
1315.000000	100.229
1320.000000	100.288
1340.000000	100.477
1360.000000	100.729
1380.000000	101.014
1400.000000	101.080
1430.000000	101.329
1450.000000	101.405
1475.000000	101.695
1500.000000	101.758
1525.000000	101.941
1550.000000	102.052
1575.000000	102.211
1600.000000	102.114
1625.000000	102.122
1650.000000	101.879
1675.000000	101.292
1700.000000	100.231
1725.000000	99.057
1750.000000	98.760
1775.000000	99.546
1800.000000	100.170
1825.000000	100.614
1850.000000	101.071
1875.000000	101.252
1900.000000	101.547
1925.000000	101.604
1950.000000	101.688
1975.000000	101.693
2000.000000	101.782
2030.000000	101.756
2060.000000	101.555
2090.000000	101.756
2120.000000	101.774
2140.000000	101.909
2180.000000	102.336
2200.000000	102.450
2240.000000	102.619
2270.000000	102.949
2300.000000	103.065
2330.000000	103.112
2360.000000	103.286
2400.000000	103.471
2430.000000	103.597
2470.000000	103.642
2500.000000	103.671
2540.000000	104.063
2580.000000	104.152
2620.000000	104.555
2650.000000	104.796
2690.000000	105.190
2720.000000	105.390
2760.000000	105.685
2800.000000	106.131
2850.000000	106.568
2900.000000	106.849
2950.000000	107.178
3000.000000	106.830
3040.000000	107.287
3070.000000	107.387
3110.000000	107.551
3150.000000	107.632
3200.000000	107.459
3250.000000	107.244
3300.000000	107.065
3350.000000	106.721
3400.000000	106.490
3450.000000	106.531
3500.000000	106.502
3550.000000	106.663
3600.000000	107.121
3650.000000	107.413
3700.000000	107.406
3750.000000	107.117
3820.000000	106.768
3870.000000	106.539
3950.000000	106.067
4000.000000	105.717
4060.000000	105.285
4120.000000	104.806
4180.000000	104.375
4250.000000	103.836
4310.000000	103.197
4370.000000	102.354
4440.000000	101.035
4500.000000	100.000
4550.000000	99.168
4620.000000	98.268
4680.000000	97.646
4750.000000	97.143
4820.000000	96.736
4870.000000	96.616
4940.000000	96.272
5000.000000	95.620
5080.000000	94.842
5150.000000	94.207
5220.000000	94.414
5300.000000	97.110
5380.000000	99.461
5450.000000	98.804
5520.000000	97.974
5600.000000	98.469
5700.000000	101.150
5800.000000	103.098
5900.000000	102.983
6000.000000	102.557
6080.000000	102.227
6150.000000	101.881
6220.000000	101.635
6300.000000	101.536
6400.000000	101.667
6500.000000	101.933
6600.000000	102.333
6700.000000	102.767
6800.000000	103.159
6900.000000	103.391
7000.000000	103.382
7100.000000	103.300
7200.000000	103.216
7300.000000	102.921
7400.000000	102.670
7500.000000	102.397
7620.000000	102.118
7750.000000	102.201
7880.000000	101.964
8000.000000	101.548
8120.000000	101.292
8250.000000	101.378
8380.000000	101.740
8500.000000	102.054
8620.000000	101.885
8750.000000	101.370
8850.000000	101.322
9000.000000	102.069
9120.000000	102.445
9250.000000	102.503
9380.000000	102.118
9500.000000	101.303
9620.000000	100.182
9750.000000	99.102
9880.000000	98.008
10000.000000	97.212
10150.000000	96.452
10300.000000	95.645
10440.000000	94.840
10600.000000	93.777
10750.000000	92.593
10900.000000	90.959
11060.000000	89.113
11200.000000	88.092
11380.000000	87.542
11500.000000	87.678
11720.000000	89.030
11800.000000	89.482
12060.000000	90.339
12200.000000	90.483
12410.000000	90.544
12500.000000	90.504
12650.000000	90.624
12800.000000	91.168
13150.000000	92.204
13200.000000	92.327
13400.000000	92.407
13600.000000	91.565
13800.000000	89.902
14000.000000	88.343
14300.000000	87.107
14500.000000	86.159
14750.000000	85.156
15000.000000	84.099
15250.000000	82.618
15500.000000	81.465
15750.000000	80.296
16000.000000	78.311
16250.000000	78.830
16500.000000	80.470
16750.000000	82.133
17000.000000	83.539
17250.000000	84.679
17500.000000	85.854
17750.000000	86.651
18000.000000	86.142
18250.000000	85.278
18500.000000	84.797
18750.000000	84.747
19000.000000	84.819
19250.000000	84.667
19500.000000	84.113
19750.000000	83.523
20000.000000	82.615
