* Measurement data measured by REW V5.31.1
* Source: EXCL: Micr√≥fono (Realtek(R) Audio), MICROPHONE (Volumen general), L, volume: 0,900. Timing signal peak level -13,6 dBFS, measurement signal peak level -8,2 dBFS
* Format: 512k Log Swept Sine, 1 sweep at -12,0 dBFS using an acoustic timing reference
* Dated: 29/07/2024 02:15:40 AM
* REW Settings:
*  C-weighting compensation: Off
*  Target level: 75.0 dB
* Note: Delay -0,0159 ms (-5,4 mm, -0,21 in) using estimated IR delay relative to Acoustic reference played from SPEAKER R with no timing offset
* Measurement: R 141
* Smoothing: None
* Frequency Step: 1/48 octave
* Start Frequency: 20.000 Hz
*
* Freq(Hz)	SPL(dB)	Phase(degrees)
20.000000	102.718	-143.4763
20.299999	102.747	-144.2385
20.600000	102.776	-144.9933
20.900000	102.803	-145.7414
21.200001	102.829	-146.4837
21.400000	102.845	-146.9760
21.799999	102.874	-147.9529
22.000000	102.887	-148.4354
22.400000	102.907	-149.3802
22.700001	102.919	-150.0618
23.000000	102.929	-150.7143
23.299999	102.939	-151.3369
23.600000	102.951	-151.9346
24.000000	102.969	-152.7101
24.299999	102.984	-153.2894
24.700001	103.005	-154.0724
25.000000	103.020	-154.6674
25.400000	103.035	-155.4605
25.799999	103.045	-156.2355
26.200001	103.052	-156.9796
26.500000	103.056	-157.5171
26.900000	103.062	-158.2150
27.200001	103.068	-158.7320
27.600000	103.074	-159.4217
28.000000	103.079	-160.1139
28.500000	103.079	-160.9713
29.000000	103.074	-161.7938
29.500000	103.066	-162.5620
30.000000	103.060	-163.2836
30.400000	103.060	-163.8491
30.700001	103.061	-164.2782
31.100000	103.061	-164.8620
31.500000	103.059	-165.4501
32.000000	103.052	-166.1645
32.500000	103.044	-166.8395
33.000000	103.037	-167.4915
33.500000	103.031	-168.1452
34.000000	103.021	-168.7962
34.500000	103.007	-169.4173
35.000000	102.993	-169.9998
35.500000	102.983	-170.5707
36.000000	102.974	-171.1591
36.500000	102.960	-171.7565
37.000000	102.941	-172.3280
37.500000	102.923	-172.8612
38.200001	102.904	-173.6029
38.700001	102.890	-174.1636
39.500000	102.854	-175.0418
40.000000	102.829	-175.5260
40.599998	102.809	-176.0748
41.200001	102.795	-176.6631
41.799999	102.774	-177.2865
42.500000	102.740	-177.9584
43.099998	102.714	-178.4720
43.700001	102.693	-178.9963
44.400002	102.661	-179.6279
45.000000	102.629	179.8897
45.500000	102.607	179.5280
46.200001	102.586	178.9796
46.799999	102.561	178.4430
47.500000	102.517	177.8593
48.200001	102.476	177.3681
48.700001	102.452	177.0135
49.400002	102.414	176.4968
50.000000	102.378	176.1074
50.799999	102.345	175.6353
51.500000	102.322	175.1367
52.200001	102.287	174.6107
53.000000	102.241	174.1021
53.799999	102.200	173.6342
54.500000	102.166	173.2440
55.200001	102.138	172.8546
56.000000	102.103	172.3217
57.000000	102.034	171.7174
58.000000	101.981	171.2386
59.000000	101.927	170.6444
60.000000	101.865	170.1340
60.799999	101.822	169.7199
61.500000	101.780	169.3847
62.200001	101.748	169.0954
63.000000	101.720	168.6808
64.000000	101.662	168.1306
65.000000	101.605	167.7513
66.000000	101.558	167.3285
67.000000	101.498	166.9415
68.000000	101.447	166.5933
69.000000	101.392	166.1841
70.000000	101.332	165.8102
71.000000	101.274	165.4435
72.000000	101.216	165.1147
73.000000	101.168	164.7658
74.000000	101.110	164.3886
75.000000	101.055	164.1078
76.199997	100.988	163.7076
77.500000	100.917	163.4428
78.800003	100.859	163.0076
80.000000	100.792	162.6777
81.199997	100.730	162.2684
82.500000	100.651	161.9503
83.800003	100.587	161.6194
85.000000	100.521	161.3537
86.199997	100.461	161.0817
87.500000	100.389	160.8237
88.500000	100.343	160.6342
90.000000	100.256	160.2539
91.199997	100.195	160.1427
92.500000	100.140	159.7630
93.800003	100.055	159.5815
95.000000	100.005	159.3586
96.199997	99.931	159.0922
97.500000	99.854	158.9438
98.800003	99.793	158.7643
100.000000	99.721	158.5722
101.500000	99.660	158.4491
103.000000	99.572	158.1828
104.400002	99.507	158.1290
106.000000	99.430	157.8871
107.500000	99.344	157.8011
109.000000	99.284	157.7106
110.599998	99.189	157.4594
112.000000	99.112	157.4172
113.800003	98.993	157.4200
115.000000	98.938	157.2628
117.199997	98.821	157.3512
118.000000	98.767	157.2132
120.599998	98.605	157.2361
122.000000	98.524	157.4935
124.099998	98.385	157.7444
125.000000	98.362	157.9874
126.500000	98.293	158.0035
128.000000	98.200	158.2527
131.500000	98.015	159.8927
132.000000	98.021	160.2255
134.000000	98.082	161.1952
136.000000	98.192	161.3126
138.000000	98.272	161.4156
140.000000	98.358	160.6782
143.000000	98.330	159.8355
145.000000	98.304	159.4688
147.500000	98.236	159.0609
150.000000	98.145	158.7188
152.500000	98.057	158.4272
155.000000	97.953	158.2952
157.500000	97.873	158.2789
160.000000	97.764	158.2238
162.500000	97.664	158.3923
165.000000	97.586	158.3991
167.500000	97.508	158.4545
170.000000	97.405	158.6839
172.500000	97.342	158.8024
175.000000	97.249	158.8889
177.500000	97.177	158.9239
180.000000	97.114	159.1558
182.500000	97.034	159.2421
185.000000	96.967	159.2987
187.500000	96.913	159.4503
190.000000	96.861	159.5326
192.500000	96.784	159.6350
195.000000	96.713	159.7856
197.500000	96.646	159.9587
200.000000	96.593	159.9542
203.000000	96.522	160.1980
206.000000	96.465	160.4637
209.000000	96.402	160.5939
212.000000	96.353	160.8680
214.000000	96.318	161.0241
218.000000	96.269	161.4282
220.000000	96.246	161.5131
224.000000	96.191	161.7509
227.000000	96.155	161.8443
230.000000	96.121	161.9633
233.000000	96.105	161.9639
236.000000	96.019	162.0623
240.000000	95.944	162.2945
243.000000	95.897	162.5336
247.000000	95.829	162.7739
250.000000	95.774	162.8771
254.000000	95.691	163.1496
258.000000	95.637	163.3997
262.000000	95.540	163.6099
265.000000	95.496	163.9811
269.000000	95.440	164.3385
272.000000	95.390	164.5242
276.000000	95.321	164.9604
280.000000	95.245	165.2898
285.000000	95.182	165.5350
290.000000	95.095	166.0262
295.000000	95.030	166.4829
300.000000	94.975	167.0262
304.000000	94.914	167.3603
307.000000	94.885	167.7424
311.000000	94.816	167.9153
315.000000	94.768	168.4437
320.000000	94.703	168.9188
325.000000	94.664	169.4313
330.000000	94.608	170.0517
335.000000	94.578	170.6788
340.000000	94.580	171.0794
345.000000	94.522	171.7367
350.000000	94.501	172.0905
355.000000	94.494	172.4117
360.000000	94.438	172.7433
365.000000	94.408	173.3132
370.000000	94.352	173.5623
375.000000	94.298	174.0478
382.000000	94.265	174.5999
387.000000	94.239	174.9314
395.000000	94.157	175.8765
400.000000	94.134	176.2177
406.000000	94.121	176.6555
412.000000	94.084	177.2743
418.000000	94.049	177.6728
425.000000	94.023	178.4594
431.000000	93.973	178.8777
437.000000	93.931	179.4344
444.000000	93.919	-179.9553
450.000000	93.914	-179.4881
455.000000	93.879	-178.7861
462.000000	93.843	-178.3533
468.000000	93.841	-177.6510
475.000000	93.790	-177.0863
482.000000	93.795	-176.4679
487.000000	93.799	-176.0873
494.000000	93.754	-175.4163
500.000000	93.774	-174.7346
508.000000	93.701	-174.0902
515.000000	93.706	-173.5129
522.000000	93.703	-173.0006
530.000000	93.703	-172.2363
538.000000	93.682	-171.7031
545.000000	93.705	-171.0177
552.000000	93.697	-170.3540
560.000000	93.687	-169.6585
570.000000	93.689	-168.7056
580.000000	93.669	-167.8194
590.000000	93.664	-166.9483
600.000000	93.696	-166.0519
608.000000	93.650	-165.2510
615.000000	93.705	-164.7386
622.000000	93.719	-164.1029
630.000000	93.723	-163.4203
640.000000	93.724	-162.8142
650.000000	93.739	-161.7432
660.000000	93.762	-161.0693
670.000000	93.792	-160.0614
680.000000	93.823	-159.4314
690.000000	93.852	-158.4591
700.000000	93.887	-157.6814
710.000000	93.934	-156.7384
720.000000	93.975	-155.9129
730.000000	94.024	-155.1739
740.000000	94.074	-154.2475
750.000000	94.123	-153.5500
762.000000	94.205	-152.5351
775.000000	94.252	-151.6739
788.000000	94.344	-150.6963
800.000000	94.424	-149.6662
812.000000	94.512	-148.9236
825.000000	94.592	-147.8852
838.000000	94.733	-147.0672
850.000000	94.833	-146.3824
862.000000	94.951	-145.8623
875.000000	95.101	-145.3448
885.000000	95.236	-145.0918
900.000000	95.437	-145.3105
912.000000	95.575	-146.3214
925.000000	95.538	-148.6834
938.000000	94.955	-149.8168
950.000000	94.497	-146.2858
962.000000	94.619	-142.7968
975.000000	94.985	-142.0135
988.000000	94.803	-143.4757
1000.000000	94.519	-140.4280
1015.000000	94.713	-136.9836
1030.000000	94.963	-135.1781
1044.000000	95.186	-134.0056
1060.000000	95.407	-132.9804
1075.000000	95.574	-131.9056
1090.000000	95.764	-131.3116
1106.000000	95.915	-130.4638
1120.000000	96.066	-129.7517
1138.000000	96.237	-129.0694
1150.000000	96.340	-128.7208
1172.000000	96.549	-127.7297
1180.000000	96.634	-127.4301
1206.000000	96.851	-126.5232
1220.000000	96.962	-125.8962
1241.000000	97.150	-125.1351
1250.000000	97.230	-124.8757
1265.000000	97.350	-124.3870
1280.000000	97.492	-123.8629
1315.000000	97.813	-122.8939
1320.000000	97.857	-122.6741
1340.000000	98.022	-122.0068
1360.000000	98.200	-121.4987
1380.000000	98.397	-120.8201
1400.000000	98.560	-120.2495
1430.000000	98.840	-119.3352
1450.000000	99.024	-118.7763
1475.000000	99.255	-118.0328
1500.000000	99.491	-117.2777
1525.000000	99.732	-116.7727
1550.000000	99.978	-116.0645
1575.000000	100.228	-115.4734
1600.000000	100.497	-114.8452
1625.000000	100.769	-114.2713
1650.000000	101.037	-113.8067
1675.000000	101.294	-113.2896
1700.000000	101.598	-112.8097
1725.000000	101.878	-112.4231
1750.000000	102.186	-111.9986
1775.000000	102.483	-111.6644
1800.000000	102.798	-111.4261
1825.000000	103.120	-111.2117
1850.000000	103.459	-111.0775
1875.000000	103.791	-111.0524
1900.000000	104.141	-111.0839
1925.000000	104.493	-111.1263
1950.000000	104.847	-111.3345
1975.000000	105.206	-111.7263
2000.000000	105.589	-112.1522
2030.000000	106.052	-112.8441
2060.000000	106.512	-113.7492
2090.000000	106.979	-114.8867
2120.000000	107.451	-116.3185
2140.000000	107.761	-117.3972
2180.000000	108.370	-119.9543
2200.000000	108.665	-121.3796
2240.000000	109.225	-124.7153
2270.000000	109.612	-127.5584
2300.000000	109.957	-130.7002
2330.000000	110.249	-134.0570
2360.000000	110.490	-137.6527
2400.000000	110.703	-142.5840
2430.000000	110.788	-146.2776
2470.000000	110.806	-151.1813
2500.000000	110.745	-154.6595
2540.000000	110.582	-158.9548
2580.000000	110.363	-162.7644
2620.000000	110.079	-166.0392
2650.000000	109.843	-168.1702
2690.000000	109.519	-170.5073
2720.000000	109.264	-171.9514
2760.000000	108.938	-173.5072
2800.000000	108.619	-174.6647
2850.000000	108.241	-175.4991
2900.000000	107.928	-175.8809
2950.000000	107.663	-175.8356
3000.000000	107.477	-175.7092
3040.000000	107.369	-175.6576
3070.000000	107.292	-175.6489
3110.000000	107.200	-175.5872
3150.000000	107.109	-175.5192
3200.000000	106.965	-175.2854
3250.000000	106.850	-174.9223
3300.000000	106.766	-174.4454
3350.000000	106.726	-173.9099
3400.000000	106.712	-173.1917
3450.000000	106.739	-172.6177
3500.000000	106.822	-171.9770
3550.000000	106.928	-171.5045
3600.000000	107.081	-171.0713
3650.000000	107.278	-170.8562
3700.000000	107.508	-170.7989
3750.000000	107.773	-171.0294
3820.000000	108.193	-171.8414
3870.000000	108.532	-172.7930
3950.000000	109.126	-175.2369
4000.000000	109.523	-177.3976
4060.000000	110.021	179.0624
4120.000000	110.488	174.5055
4180.000000	110.850	168.7830
4250.000000	111.068	160.9505
4310.000000	110.999	153.5658
4370.000000	110.684	146.3128
4440.000000	110.024	138.5914
4500.000000	109.281	133.0868
4550.000000	108.584	129.3836
4620.000000	107.569	125.5386
4680.000000	106.694	123.2753
4750.000000	105.702	121.6945
4820.000000	104.745	120.8657
4870.000000	104.112	120.8279
4940.000000	103.264	121.1382
5000.000000	102.583	121.8420
5080.000000	101.723	123.2011
5150.000000	100.995	124.6683
5220.000000	100.333	126.4340
5300.000000	99.656	128.6334
5380.000000	99.003	131.0466
5450.000000	98.468	133.4374
5520.000000	97.965	136.3621
5600.000000	97.542	140.1769
5700.000000	97.174	143.3455
5800.000000	96.682	146.8090
5900.000000	96.279	150.6948
6000.000000	95.926	154.4338
6080.000000	95.689	158.0072
6150.000000	95.514	160.5875
6220.000000	95.394	163.4778
6300.000000	95.307	166.9703
6400.000000	95.285	171.0588
6500.000000	95.308	175.3798
6600.000000	95.367	179.6218
6700.000000	95.588	-176.4095
6800.000000	95.781	-172.2384
6900.000000	96.114	-168.4561
7000.000000	96.497	-165.1515
7100.000000	97.000	-161.4890
7200.000000	97.602	-158.3156
7300.000000	98.306	-155.7540
7400.000000	99.133	-153.8986
7500.000000	100.121	-152.8137
7620.000000	101.532	-153.2771
7750.000000	103.277	-157.4497
7880.000000	105.006	-167.7469
8000.000000	105.911	175.9407
8120.000000	105.358	157.7495
8250.000000	103.514	143.6348
8380.000000	101.353	136.9548
8500.000000	99.510	135.0407
8620.000000	97.908	135.5321
8750.000000	96.451	137.8242
8850.000000	95.427	140.4515
9000.000000	94.146	145.5112
9120.000000	93.324	149.5477
9250.000000	92.510	154.2684
9380.000000	91.794	159.7155
9500.000000	91.304	164.6025
9620.000000	90.866	170.3265
9750.000000	90.584	175.0268
9880.000000	90.285	-178.8499
10000.000000	90.104	-173.5240
10150.000000	90.102	-166.2607
10300.000000	90.124	-160.6414
10440.000000	90.351	-154.5136
10600.000000	90.737	-147.7604
10750.000000	91.208	-141.7444
10900.000000	91.890	-135.7625
11060.000000	92.877	-130.5474
11200.000000	93.865	-126.0629
11380.000000	95.651	-122.6881
11500.000000	97.200	-121.9311
11720.000000	100.771	-129.9083
11800.000000	102.148	-138.3107
12060.000000	102.317	176.0920
12200.000000	99.871	161.9628
12410.000000	96.372	156.2172
12500.000000	95.159	156.9358
12650.000000	93.451	159.7841
12800.000000	92.044	163.9586
13150.000000	89.930	176.7179
13200.000000	89.732	177.9408
13400.000000	89.084	-173.6189
13600.000000	88.553	-166.2443
13800.000000	88.434	-158.3206
14000.000000	88.680	-151.0452
14300.000000	89.651	-141.7516
14500.000000	90.810	-138.9922
14750.000000	92.130	-157.6900
15000.000000	86.335	-126.4344
15250.000000	91.961	-107.7127
15500.000000	96.644	-112.8716
15750.000000	100.637	-141.7931
16000.000000	99.445	-178.2866
16250.000000	97.067	168.8891
16500.000000	95.841	165.9616
16750.000000	95.811	163.0006
17000.000000	96.591	152.8849
17250.000000	96.489	130.4722
17500.000000	93.680	109.2902
17750.000000	90.106	101.0949
18000.000000	86.923	102.2310
18250.000000	84.531	107.1212
18500.000000	82.582	114.7061
18750.000000	81.272	123.5124
19000.000000	80.074	131.8604
19250.000000	79.821	137.6184
19500.000000	79.788	142.3117
19750.000000	80.527	138.1682
