* Measurement data measured by REW V5.31.1
* Source: Frequency response averaged data
* Format: Averaged data produced from the rms magnitudes of R 414, R 415, R 416, R 417
* Dated: 14/08/2024 01:31:38 PM
* REW Settings:
*  C-weighting compensation: Off
*  Target level: 75.0 dB
* Note: Averaged data produced from the rms magnitudes of R 414, R 415, R 416, R 417
* Measurement: R AVG
* Smoothing: None
* Frequency Step: 1/48 octave
* Start Frequency: 20.000 Hz
*
* Freq(Hz)	SPL(dB)
20.000000	69.699
20.299999	69.646
20.600000	69.395
20.900000	69.106
21.200001	68.972
21.400000	69.044
21.799999	69.496
22.000000	69.790
22.400000	70.324
22.700001	70.575
23.000000	70.696
23.299999	70.740
23.600000	70.786
24.000000	70.961
24.299999	71.188
24.700001	71.537
25.000000	71.761
25.400000	71.953
25.799999	72.052
26.200001	72.149
26.500000	72.273
26.900000	72.518
27.200001	72.735
27.600000	73.013
28.000000	73.245
28.500000	73.483
29.000000	73.724
29.500000	74.006
30.000000	74.326
30.400000	74.588
30.700001	74.772
31.100000	74.980
31.500000	75.123
32.000000	75.221
32.500000	75.306
33.000000	75.476
33.500000	75.730
34.000000	75.972
34.500000	76.138
35.000000	76.266
35.500000	76.431
36.000000	76.651
36.500000	76.881
37.000000	77.087
37.500000	77.282
38.200001	77.558
38.700001	77.736
39.500000	77.968
40.000000	78.125
40.599998	78.347
41.200001	78.563
41.799999	78.755
42.500000	78.983
43.099998	79.190
43.700001	79.376
44.400002	79.566
45.000000	79.757
45.500000	79.948
46.200001	80.197
46.799999	80.335
47.500000	80.462
48.200001	80.673
48.700001	80.861
49.400002	81.071
50.000000	81.188
50.799999	81.357
51.500000	81.520
52.200001	81.642
53.000000	81.789
53.799999	81.997
54.500000	82.160
55.200001	82.280
56.000000	82.438
57.000000	82.687
58.000000	82.867
59.000000	83.008
60.000000	83.193
60.799999	83.353
61.500000	83.495
62.200001	83.621
63.000000	83.727
64.000000	83.821
65.000000	83.955
66.000000	84.136
67.000000	84.254
68.000000	84.399
69.000000	84.516
70.000000	84.618
71.000000	84.743
72.000000	84.835
73.000000	84.963
74.000000	85.056
75.000000	85.157
76.199997	85.267
77.500000	85.450
78.800003	85.486
80.000000	85.627
81.199997	85.675
82.500000	85.800
83.800003	85.877
85.000000	85.977
86.199997	85.998
87.500000	86.160
88.500000	86.199
90.000000	86.270
91.199997	86.358
92.500000	86.426
93.800003	86.492
95.000000	86.523
96.199997	86.608
97.500000	86.625
98.800003	86.674
100.000000	86.729
101.500000	86.780
103.000000	86.813
104.400002	86.900
106.000000	86.942
107.500000	86.999
109.000000	87.045
110.599998	87.083
112.000000	87.125
113.800003	87.185
115.000000	87.201
117.199997	87.249
118.000000	87.268
120.599998	87.320
122.000000	87.356
124.099998	87.402
125.000000	87.433
126.500000	87.464
128.000000	87.475
131.500000	87.537
132.000000	87.540
134.000000	87.585
136.000000	87.665
138.000000	87.659
140.000000	87.735
143.000000	87.749
145.000000	87.772
147.500000	87.827
150.000000	87.848
152.500000	87.878
155.000000	87.925
157.500000	87.969
160.000000	88.033
162.500000	88.001
165.000000	88.008
167.500000	88.042
170.000000	88.067
172.500000	88.066
175.000000	88.116
177.500000	88.106
180.000000	88.129
182.500000	88.150
185.000000	88.182
187.500000	88.174
190.000000	88.187
192.500000	88.229
195.000000	88.248
197.500000	88.277
200.000000	88.280
203.000000	88.308
206.000000	88.359
209.000000	88.384
212.000000	88.414
214.000000	88.451
218.000000	88.526
220.000000	88.516
224.000000	88.550
227.000000	88.580
230.000000	88.633
233.000000	88.661
236.000000	88.685
240.000000	88.725
243.000000	88.760
247.000000	88.797
250.000000	88.815
254.000000	88.842
258.000000	88.874
262.000000	88.843
265.000000	88.873
269.000000	88.901
272.000000	88.917
276.000000	88.940
280.000000	88.974
285.000000	89.013
290.000000	89.207
295.000000	89.345
300.000000	89.345
304.000000	89.330
307.000000	89.309
311.000000	89.283
315.000000	89.295
320.000000	89.322
325.000000	89.330
330.000000	89.356
335.000000	89.377
340.000000	89.376
345.000000	89.424
350.000000	89.429
355.000000	89.402
360.000000	89.379
365.000000	89.335
370.000000	89.326
375.000000	89.380
382.000000	89.560
387.000000	89.760
395.000000	90.105
400.000000	90.239
406.000000	90.431
412.000000	90.550
418.000000	90.689
425.000000	90.802
431.000000	90.903
437.000000	90.986
444.000000	91.088
450.000000	91.179
455.000000	91.228
462.000000	91.314
468.000000	91.374
475.000000	91.457
482.000000	91.564
487.000000	91.614
494.000000	91.689
500.000000	91.763
508.000000	91.838
515.000000	91.927
522.000000	92.004
530.000000	92.113
538.000000	92.161
545.000000	92.262
552.000000	92.339
560.000000	92.435
570.000000	92.532
580.000000	92.640
590.000000	92.750
600.000000	92.855
608.000000	92.950
615.000000	93.030
622.000000	93.111
630.000000	93.200
640.000000	93.295
650.000000	93.385
660.000000	93.544
670.000000	93.632
680.000000	93.733
690.000000	93.837
700.000000	93.933
710.000000	94.046
720.000000	94.156
730.000000	94.254
740.000000	94.367
750.000000	94.464
762.000000	94.618
775.000000	94.747
788.000000	94.893
800.000000	95.032
812.000000	95.148
825.000000	95.287
838.000000	95.440
850.000000	95.568
862.000000	95.688
875.000000	95.823
885.000000	95.945
900.000000	96.110
912.000000	96.229
925.000000	96.377
938.000000	96.510
950.000000	96.652
962.000000	96.778
975.000000	96.941
988.000000	97.090
1000.000000	97.213
1015.000000	97.400
1030.000000	97.569
1044.000000	97.715
1060.000000	97.913
1075.000000	98.092
1090.000000	98.285
1106.000000	98.474
1120.000000	98.668
1138.000000	98.895
1150.000000	99.051
1172.000000	99.354
1180.000000	99.455
1206.000000	99.819
1220.000000	99.993
1241.000000	100.317
1250.000000	100.433
1265.000000	100.657
1280.000000	100.910
1315.000000	101.461
1320.000000	101.545
1340.000000	101.845
1360.000000	102.180
1380.000000	102.533
1400.000000	102.869
1430.000000	103.387
1450.000000	103.734
1475.000000	104.163
1500.000000	104.615
1525.000000	105.066
1550.000000	105.509
1575.000000	105.971
1600.000000	106.426
1625.000000	106.890
1650.000000	107.293
1675.000000	107.749
1700.000000	108.169
1725.000000	108.547
1750.000000	108.912
1775.000000	109.281
1800.000000	109.633
1825.000000	109.898
1850.000000	110.251
1875.000000	110.541
1900.000000	110.814
1925.000000	111.068
1950.000000	111.317
1975.000000	111.418
2000.000000	111.650
2030.000000	111.825
2060.000000	111.965
2090.000000	112.076
2120.000000	112.178
2140.000000	112.232
2180.000000	112.309
2200.000000	112.327
2240.000000	112.272
2270.000000	112.203
2300.000000	112.117
2330.000000	111.994
2360.000000	111.827
2400.000000	111.534
2430.000000	111.139
2470.000000	110.377
2500.000000	110.971
2540.000000	111.146
2580.000000	110.904
2620.000000	110.621
2650.000000	110.400
2690.000000	110.110
2720.000000	109.902
2760.000000	109.623
2800.000000	109.344
2850.000000	109.009
2900.000000	108.676
2950.000000	108.371
3000.000000	108.075
3040.000000	107.846
3070.000000	107.689
3110.000000	107.485
3150.000000	107.286
3200.000000	107.021
3250.000000	106.766
3300.000000	106.544
3350.000000	106.330
3400.000000	106.137
3450.000000	105.977
3500.000000	105.813
3550.000000	105.694
3600.000000	105.579
3650.000000	105.493
3700.000000	105.406
3750.000000	105.352
3820.000000	105.278
3870.000000	105.273
3950.000000	105.265
4000.000000	105.306
4060.000000	105.435
4120.000000	105.644
4180.000000	105.808
4250.000000	106.010
4310.000000	106.224
4370.000000	106.482
4440.000000	106.774
4500.000000	107.093
4550.000000	107.338
4620.000000	107.791
4680.000000	108.219
4750.000000	108.666
4820.000000	109.168
4870.000000	109.578
4940.000000	109.926
5000.000000	110.337
5080.000000	110.418
5150.000000	110.489
5220.000000	110.280
5300.000000	109.695
5380.000000	108.895
5450.000000	108.180
5520.000000	107.352
5600.000000	106.339
5700.000000	105.118
5800.000000	103.983
5900.000000	102.902
6000.000000	102.019
6080.000000	101.341
6150.000000	100.835
6220.000000	100.345
6300.000000	99.861
6400.000000	99.291
6500.000000	98.787
6600.000000	98.254
6700.000000	97.727
6800.000000	97.179
6900.000000	96.666
7000.000000	96.185
7100.000000	95.793
7200.000000	95.436
7300.000000	95.159
7400.000000	94.897
7500.000000	94.744
7620.000000	94.718
7750.000000	94.791
7880.000000	94.837
8000.000000	94.850
8120.000000	94.789
8250.000000	94.826
8380.000000	94.889
8500.000000	95.124
8620.000000	95.502
8750.000000	96.035
8850.000000	96.552
9000.000000	97.374
9120.000000	98.184
9250.000000	99.050
9380.000000	99.864
9500.000000	100.388
9620.000000	100.794
9750.000000	100.810
9880.000000	100.574
10000.000000	100.020
10150.000000	99.032
10300.000000	97.822
10440.000000	96.834
10600.000000	95.685
10750.000000	94.172
10900.000000	90.559
11060.000000	85.878
11200.000000	87.357
11380.000000	89.680
11500.000000	90.577
11720.000000	92.052
11800.000000	92.569
12060.000000	94.496
12200.000000	95.556
12410.000000	96.688
12500.000000	97.166
12650.000000	97.505
12800.000000	97.854
13150.000000	98.050
13200.000000	97.980
13400.000000	97.288
13600.000000	95.789
13800.000000	93.600
14000.000000	90.974
14300.000000	86.380
14500.000000	82.924
14750.000000	79.940
15000.000000	80.307
15250.000000	81.479
15500.000000	82.528
15750.000000	82.793
16000.000000	82.589
16250.000000	82.603
16500.000000	82.663
16750.000000	82.598
17000.000000	82.705
17250.000000	83.009
17500.000000	83.518
17750.000000	84.004
18000.000000	84.763
18250.000000	85.356
18500.000000	86.436
18750.000000	87.046
19000.000000	85.117
19250.000000	82.869
19500.000000	81.258
19750.000000	80.328
20000.000000	79.393
