* Measurement data measured by REW V5.31.1
* Source: Frequency response averaged data
* Format: Averaged data produced from the rms magnitudes of R 375, R 376, R 377, R 378
* Dated: 9/08/2024 02:28:07 AM
* REW Settings:
*  C-weighting compensation: Off
*  Target level: 75.0 dB
* Note: Averaged data produced from the rms magnitudes of R 375, R 376, R 377, R 378
* Measurement: R AVG
* Smoothing: None
* Frequency Step: 1/48 octave
* Start Frequency: 20.000 Hz
*
* Freq(Hz)	SPL(dB)
20.000000	89.421
20.299999	89.576
20.600000	89.705
20.900000	89.819
21.200001	89.930
21.400000	90.010
21.799999	90.191
22.000000	90.291
22.400000	90.499
22.700001	90.648
23.000000	90.785
23.299999	90.911
23.600000	91.033
24.000000	91.199
24.299999	91.332
24.700001	91.516
25.000000	91.653
25.400000	91.826
25.799999	91.985
26.200001	92.141
26.500000	92.261
26.900000	92.427
27.200001	92.553
27.600000	92.714
28.000000	92.864
28.500000	93.036
29.000000	93.206
29.500000	93.385
30.000000	93.569
30.400000	93.714
30.700001	93.818
31.100000	93.953
31.500000	94.084
32.000000	94.247
32.500000	94.411
33.000000	94.578
33.500000	94.744
34.000000	94.906
34.500000	95.061
35.000000	95.208
35.500000	95.355
36.000000	95.508
36.500000	95.663
37.000000	95.810
37.500000	95.945
38.200001	96.130
38.700001	96.272
39.500000	96.505
40.000000	96.633
40.599998	96.770
41.200001	96.909
41.799999	97.058
42.500000	97.231
43.099998	97.362
43.700001	97.481
44.400002	97.614
45.000000	97.731
45.500000	97.829
46.200001	97.965
46.799999	98.074
47.500000	98.188
48.200001	98.289
48.700001	98.353
49.400002	98.435
50.000000	98.509
50.799999	98.620
51.500000	98.718
52.200001	98.791
53.000000	98.825
53.799999	98.837
54.500000	98.868
55.200001	98.905
56.000000	98.974
57.000000	99.140
58.000000	99.240
59.000000	99.468
60.000000	99.769
60.799999	99.839
61.500000	99.908
62.200001	100.034
63.000000	100.151
64.000000	100.280
65.000000	100.427
66.000000	100.537
67.000000	100.640
68.000000	100.733
69.000000	100.814
70.000000	100.883
71.000000	100.956
72.000000	101.030
73.000000	101.106
74.000000	101.173
75.000000	101.234
76.199997	101.291
77.500000	101.352
78.800003	101.424
80.000000	101.492
81.199997	101.550
82.500000	101.599
83.800003	101.648
85.000000	101.695
86.199997	101.725
87.500000	101.753
88.500000	101.781
90.000000	101.784
91.199997	101.822
92.500000	101.821
93.800003	101.829
95.000000	101.833
96.199997	101.838
97.500000	101.839
98.800003	101.836
100.000000	101.835
101.500000	101.821
103.000000	101.812
104.400002	101.791
106.000000	101.781
107.500000	101.753
109.000000	101.731
110.599998	101.696
112.000000	101.664
113.800003	101.629
115.000000	101.598
117.199997	101.561
118.000000	101.597
120.599998	101.468
122.000000	101.413
124.099998	101.340
125.000000	101.302
126.500000	101.275
128.000000	101.223
131.500000	101.116
132.000000	101.101
134.000000	101.047
136.000000	100.982
138.000000	100.921
140.000000	100.867
143.000000	100.767
145.000000	100.711
147.500000	100.624
150.000000	100.550
152.500000	100.491
155.000000	100.414
157.500000	100.333
160.000000	100.250
162.500000	100.151
165.000000	100.072
167.500000	99.991
170.000000	99.917
172.500000	99.827
175.000000	99.762
177.500000	99.675
180.000000	99.568
182.500000	99.484
185.000000	99.405
187.500000	99.318
190.000000	99.241
192.500000	99.168
195.000000	99.093
197.500000	99.015
200.000000	98.953
203.000000	98.879
206.000000	98.804
209.000000	98.741
212.000000	98.674
214.000000	98.619
218.000000	98.548
220.000000	98.500
224.000000	98.414
227.000000	98.352
230.000000	98.290
233.000000	98.216
236.000000	98.183
240.000000	98.128
243.000000	98.047
247.000000	97.963
250.000000	97.911
254.000000	97.832
258.000000	97.766
262.000000	97.691
265.000000	97.635
269.000000	97.548
272.000000	97.499
276.000000	97.443
280.000000	97.383
285.000000	97.300
290.000000	97.223
295.000000	97.152
300.000000	97.073
304.000000	97.014
307.000000	96.986
311.000000	96.915
315.000000	96.871
320.000000	96.792
325.000000	96.725
330.000000	96.639
335.000000	96.601
340.000000	96.509
345.000000	96.462
350.000000	96.377
355.000000	96.327
360.000000	96.293
365.000000	96.233
370.000000	96.189
375.000000	96.151
382.000000	96.125
387.000000	96.119
395.000000	96.138
400.000000	96.194
406.000000	96.276
412.000000	96.402
418.000000	96.572
425.000000	96.791
431.000000	96.950
437.000000	97.045
444.000000	97.004
450.000000	96.910
455.000000	96.781
462.000000	96.565
468.000000	96.395
475.000000	96.237
482.000000	96.095
487.000000	96.010
494.000000	95.923
500.000000	95.868
508.000000	95.794
515.000000	95.738
522.000000	95.696
530.000000	95.634
538.000000	95.595
545.000000	95.560
552.000000	95.545
560.000000	95.499
570.000000	95.447
580.000000	95.394
590.000000	95.368
600.000000	95.327
608.000000	95.308
615.000000	95.287
622.000000	95.258
630.000000	95.208
640.000000	95.190
650.000000	95.149
660.000000	95.137
670.000000	95.123
680.000000	95.104
690.000000	95.089
700.000000	95.044
710.000000	95.038
720.000000	95.042
730.000000	95.035
740.000000	95.037
750.000000	95.016
762.000000	95.015
775.000000	95.034
788.000000	95.036
800.000000	95.014
812.000000	95.072
825.000000	95.050
838.000000	95.068
850.000000	95.090
862.000000	95.087
875.000000	95.067
885.000000	95.087
900.000000	95.149
912.000000	95.202
925.000000	95.195
938.000000	95.289
950.000000	95.288
962.000000	95.377
975.000000	95.484
988.000000	95.635
1000.000000	95.746
1015.000000	95.922
1030.000000	96.055
1044.000000	96.213
1060.000000	96.426
1075.000000	96.673
1090.000000	96.987
1106.000000	97.258
1120.000000	97.493
1138.000000	97.850
1150.000000	98.025
1172.000000	98.553
1180.000000	98.766
1206.000000	99.328
1220.000000	99.599
1241.000000	100.122
1250.000000	100.366
1265.000000	100.670
1280.000000	101.104
1315.000000	101.941
1320.000000	102.069
1340.000000	102.518
1360.000000	102.958
1380.000000	103.445
1400.000000	103.851
1430.000000	104.372
1450.000000	104.650
1475.000000	105.128
1500.000000	105.464
1525.000000	105.860
1550.000000	106.233
1575.000000	106.593
1600.000000	106.885
1625.000000	107.196
1650.000000	107.409
1675.000000	107.676
1700.000000	107.928
1725.000000	108.155
1750.000000	108.288
1775.000000	108.482
1800.000000	108.687
1825.000000	108.765
1850.000000	108.938
1875.000000	109.013
1900.000000	109.140
1925.000000	109.162
1950.000000	109.224
1975.000000	109.162
2000.000000	109.199
2030.000000	109.238
2060.000000	109.090
2090.000000	109.051
2120.000000	109.047
2140.000000	109.076
2180.000000	109.191
2200.000000	109.212
2240.000000	109.197
2270.000000	109.257
2300.000000	109.334
2330.000000	109.369
2360.000000	109.468
2400.000000	109.664
2430.000000	109.853
2470.000000	110.032
2500.000000	110.104
2540.000000	110.425
2580.000000	110.578
2620.000000	110.873
2650.000000	110.928
2690.000000	110.998
2720.000000	111.145
2760.000000	111.864
2800.000000	112.639
2850.000000	113.319
2900.000000	113.883
2950.000000	114.529
3000.000000	114.974
3040.000000	115.516
3070.000000	115.777
3110.000000	116.090
3150.000000	116.233
3200.000000	115.901
3250.000000	116.381
3300.000000	116.745
3350.000000	117.021
3400.000000	117.146
3450.000000	117.256
3500.000000	117.305
3550.000000	117.163
3600.000000	116.998
3650.000000	116.726
3700.000000	116.292
3750.000000	115.558
3820.000000	114.399
3870.000000	113.729
3950.000000	112.496
4000.000000	111.605
4060.000000	110.573
4120.000000	109.549
4180.000000	108.429
4250.000000	107.035
4310.000000	105.916
4370.000000	104.763
4440.000000	103.428
4500.000000	102.588
4550.000000	102.250
4620.000000	102.798
4680.000000	104.157
4750.000000	106.294
4820.000000	108.457
4870.000000	109.689
4940.000000	110.813
5000.000000	111.162
5080.000000	110.905
5150.000000	110.367
5220.000000	109.764
5300.000000	109.135
5380.000000	108.577
5450.000000	108.107
5520.000000	107.702
5600.000000	107.372
5700.000000	106.978
5800.000000	106.689
5900.000000	106.414
6000.000000	106.192
6080.000000	105.998
6150.000000	105.864
6220.000000	105.685
6300.000000	105.506
6400.000000	105.234
6500.000000	104.991
6600.000000	104.840
6700.000000	104.807
6800.000000	105.016
6900.000000	105.405
7000.000000	105.988
7100.000000	106.627
7200.000000	107.442
7300.000000	108.200
7400.000000	108.924
7500.000000	109.569
7620.000000	110.072
7750.000000	110.392
7880.000000	110.484
8000.000000	110.385
8120.000000	110.097
8250.000000	109.738
8380.000000	109.357
8500.000000	108.964
8620.000000	108.552
8750.000000	108.171
8850.000000	107.905
9000.000000	107.598
9120.000000	107.452
9250.000000	107.341
9380.000000	107.211
9500.000000	106.994
9620.000000	106.677
9750.000000	106.279
9880.000000	105.485
10000.000000	104.166
10150.000000	102.397
10300.000000	100.388
10440.000000	98.322
10600.000000	96.817
10750.000000	96.252
10900.000000	96.051
11060.000000	96.342
11200.000000	96.886
11380.000000	97.060
11500.000000	98.078
11720.000000	101.662
11800.000000	102.727
12060.000000	104.202
12200.000000	103.739
12410.000000	103.100
12500.000000	103.183
12650.000000	103.696
12800.000000	104.444
13150.000000	105.338
13200.000000	105.278
13400.000000	104.669
13600.000000	104.031
13800.000000	103.324
14000.000000	102.171
14300.000000	99.398
14500.000000	97.423
14750.000000	95.627
15000.000000	94.127
15250.000000	92.253
15500.000000	89.775
15750.000000	87.324
16000.000000	85.606
16250.000000	84.855
16500.000000	84.728
16750.000000	85.727
17000.000000	87.266
17250.000000	88.977
17500.000000	90.198
17750.000000	90.054
18000.000000	88.760
18250.000000	87.865
18500.000000	87.484
18750.000000	87.625
19000.000000	89.013
19250.000000	91.048
19500.000000	92.003
19750.000000	91.784
20000.000000	91.102
