* Measurement data measured by REW V5.31.1
* Source: Frequency response averaged data
* Format: Averaged data produced from the rms magnitudes of R 418, R 420, R 421, R 422, R 423, R 424, R 425
* Dated: 14/08/2024 01:24:09 PM
* REW Settings:
*  C-weighting compensation: Off
*  Target level: 75.0 dB
* Note: Averaged data produced from the rms magnitudes of R 418, R 420, R 421, R 422, R 423, R 424, R 425
* Measurement: R AVG
* Smoothing: None
* Frequency Step: 1/48 octave
* Start Frequency: 20.000 Hz
*
* Freq(Hz)	SPL(dB)
20.000000	68.782
20.299999	69.102
20.600000	69.376
20.900000	69.466
21.200001	69.336
21.400000	69.123
21.799999	68.471
22.000000	68.114
22.400000	67.593
22.700001	67.552
23.000000	67.772
23.299999	68.095
23.600000	68.377
24.000000	68.619
24.299999	68.752
24.700001	68.971
25.000000	69.213
25.400000	69.642
25.799999	70.147
26.200001	70.654
26.500000	70.985
26.900000	71.300
27.200001	71.428
27.600000	71.495
28.000000	71.550
28.500000	71.776
29.000000	72.149
29.500000	72.428
30.000000	72.459
30.400000	72.381
30.700001	72.363
31.100000	72.490
31.500000	72.784
32.000000	73.214
32.500000	73.537
33.000000	73.738
33.500000	73.927
34.000000	74.202
34.500000	74.562
35.000000	74.928
35.500000	75.223
36.000000	75.412
36.500000	75.511
37.000000	75.581
37.500000	75.678
38.200001	75.906
38.700001	76.158
39.500000	76.661
40.000000	76.905
40.599998	77.048
41.200001	77.165
41.799999	77.421
42.500000	77.773
43.099998	77.902
43.700001	77.955
44.400002	78.307
45.000000	78.808
45.500000	79.117
46.200001	79.252
46.799999	79.272
47.500000	79.409
48.200001	79.633
48.700001	79.818
49.400002	80.139
50.000000	80.403
50.799999	80.552
51.500000	80.585
52.200001	80.831
53.000000	81.282
53.799999	81.491
54.500000	81.602
55.200001	81.859
56.000000	82.059
57.000000	82.205
58.000000	82.695
59.000000	82.806
60.000000	82.906
60.799999	83.242
61.500000	83.487
62.200001	83.639
63.000000	83.768
64.000000	83.960
65.000000	84.124
66.000000	84.324
67.000000	84.669
68.000000	84.848
69.000000	85.063
70.000000	85.337
71.000000	85.481
72.000000	85.663
73.000000	85.858
74.000000	86.029
75.000000	86.213
76.199997	86.461
77.500000	86.676
78.800003	86.829
80.000000	87.122
81.199997	87.281
82.500000	87.502
83.800003	87.683
85.000000	87.838
86.199997	88.025
87.500000	88.214
88.500000	88.352
90.000000	88.540
91.199997	88.679
92.500000	88.849
93.800003	88.973
95.000000	89.110
96.199997	89.313
97.500000	89.412
98.800003	89.573
100.000000	89.686
101.500000	89.816
103.000000	89.977
104.400002	90.077
106.000000	90.219
107.500000	90.390
109.000000	90.485
110.599998	90.633
112.000000	90.760
113.800003	90.886
115.000000	90.971
117.199997	91.127
118.000000	91.172
120.599998	91.303
122.000000	91.376
124.099998	91.508
125.000000	91.569
126.500000	91.657
128.000000	91.740
131.500000	91.878
132.000000	91.894
134.000000	92.002
136.000000	92.111
138.000000	92.160
140.000000	92.215
143.000000	92.302
145.000000	92.363
147.500000	92.438
150.000000	92.470
152.500000	92.543
155.000000	92.625
157.500000	92.646
160.000000	92.688
162.500000	92.697
165.000000	92.705
167.500000	92.753
170.000000	92.761
172.500000	92.749
175.000000	92.754
177.500000	92.736
180.000000	92.757
182.500000	92.731
185.000000	92.736
187.500000	92.718
190.000000	92.700
192.500000	92.676
195.000000	92.680
197.500000	92.646
200.000000	92.617
203.000000	92.603
206.000000	92.603
209.000000	92.551
212.000000	92.544
214.000000	92.536
218.000000	92.491
220.000000	92.488
224.000000	92.447
227.000000	92.439
230.000000	92.438
233.000000	92.421
236.000000	92.374
240.000000	92.365
243.000000	92.352
247.000000	92.340
250.000000	92.316
254.000000	92.293
258.000000	92.227
262.000000	92.231
265.000000	92.219
269.000000	92.188
272.000000	92.142
276.000000	92.128
280.000000	92.121
285.000000	92.060
290.000000	92.041
295.000000	92.035
300.000000	91.958
304.000000	91.982
307.000000	91.946
311.000000	91.924
315.000000	91.926
320.000000	91.900
325.000000	91.847
330.000000	91.812
335.000000	91.849
340.000000	91.784
345.000000	91.754
350.000000	91.763
355.000000	91.731
360.000000	91.677
365.000000	91.704
370.000000	91.727
375.000000	91.835
382.000000	92.011
387.000000	92.184
395.000000	92.335
400.000000	92.352
406.000000	92.280
412.000000	92.230
418.000000	92.170
425.000000	92.145
431.000000	92.254
437.000000	92.498
444.000000	92.746
450.000000	92.951
455.000000	93.083
462.000000	93.168
468.000000	93.227
475.000000	93.310
482.000000	93.282
487.000000	93.331
494.000000	93.339
500.000000	93.340
508.000000	93.352
515.000000	93.372
522.000000	93.347
530.000000	93.394
538.000000	93.429
545.000000	93.414
552.000000	93.426
560.000000	93.461
570.000000	93.510
580.000000	93.535
590.000000	93.575
600.000000	93.575
608.000000	93.626
615.000000	93.652
622.000000	93.671
630.000000	93.728
640.000000	93.785
650.000000	93.787
660.000000	93.806
670.000000	93.851
680.000000	93.894
690.000000	93.934
700.000000	93.944
710.000000	93.992
720.000000	94.038
730.000000	94.038
740.000000	94.054
750.000000	94.160
762.000000	94.188
775.000000	94.218
788.000000	94.309
800.000000	94.396
812.000000	94.421
825.000000	94.468
838.000000	94.529
850.000000	94.587
862.000000	94.641
875.000000	94.682
885.000000	94.764
900.000000	94.879
912.000000	94.940
925.000000	95.019
938.000000	95.100
950.000000	95.134
962.000000	95.265
975.000000	95.363
988.000000	95.477
1000.000000	95.556
1015.000000	95.741
1030.000000	95.869
1044.000000	96.001
1060.000000	96.145
1075.000000	96.404
1090.000000	96.564
1106.000000	96.768
1120.000000	97.013
1138.000000	97.290
1150.000000	97.465
1172.000000	97.881
1180.000000	98.038
1206.000000	98.492
1220.000000	98.746
1241.000000	99.230
1250.000000	99.420
1265.000000	99.767
1280.000000	100.137
1315.000000	101.079
1320.000000	101.189
1340.000000	101.749
1360.000000	102.297
1380.000000	102.883
1400.000000	103.440
1430.000000	104.291
1450.000000	104.858
1475.000000	105.547
1500.000000	106.228
1525.000000	106.859
1550.000000	107.482
1575.000000	108.019
1600.000000	108.520
1625.000000	109.008
1650.000000	109.378
1675.000000	109.756
1700.000000	110.059
1725.000000	110.275
1750.000000	110.494
1775.000000	110.686
1800.000000	110.836
1825.000000	110.900
1850.000000	111.052
1875.000000	111.133
1900.000000	111.204
1925.000000	111.259
1950.000000	111.295
1975.000000	111.235
2000.000000	111.257
2030.000000	111.195
2060.000000	111.112
2090.000000	111.025
2120.000000	110.908
2140.000000	110.807
2180.000000	110.608
2200.000000	110.471
2240.000000	110.156
2270.000000	109.892
2300.000000	109.628
2330.000000	109.340
2360.000000	109.044
2400.000000	108.629
2430.000000	108.322
2470.000000	107.875
2500.000000	107.562
2540.000000	107.157
2580.000000	106.761
2620.000000	106.376
2650.000000	106.101
2690.000000	105.742
2720.000000	105.476
2760.000000	105.162
2800.000000	104.868
2850.000000	104.503
2900.000000	104.179
2950.000000	103.879
3000.000000	103.608
3040.000000	103.413
3070.000000	103.288
3110.000000	103.091
3150.000000	102.939
3200.000000	102.688
3250.000000	102.500
3300.000000	102.336
3350.000000	102.148
3400.000000	102.005
3450.000000	101.902
3500.000000	101.813
3550.000000	101.765
3600.000000	101.695
3650.000000	101.671
3700.000000	101.679
3750.000000	101.691
3820.000000	101.773
3870.000000	101.856
3950.000000	102.015
4000.000000	102.134
4060.000000	102.332
4120.000000	102.630
4180.000000	102.862
4250.000000	103.268
4310.000000	103.638
4370.000000	104.006
4440.000000	104.430
4500.000000	104.758
4550.000000	105.035
4620.000000	105.433
4680.000000	105.884
4750.000000	106.332
4820.000000	106.810
4870.000000	107.225
4940.000000	107.664
5000.000000	108.138
5080.000000	108.659
5150.000000	109.170
5220.000000	109.639
5300.000000	110.140
5380.000000	110.586
5450.000000	110.957
5520.000000	111.211
5600.000000	111.340
5700.000000	111.269
5800.000000	110.909
5900.000000	110.737
6000.000000	110.573
6080.000000	110.121
6150.000000	109.588
6220.000000	108.970
6300.000000	108.238
6400.000000	107.307
6500.000000	106.425
6600.000000	105.531
6700.000000	104.682
6800.000000	103.906
6900.000000	103.168
7000.000000	102.474
7100.000000	101.850
7200.000000	101.295
7300.000000	100.753
7400.000000	100.230
7500.000000	99.744
7620.000000	99.171
7750.000000	98.576
7880.000000	98.077
8000.000000	97.648
8120.000000	97.215
8250.000000	96.882
8380.000000	96.530
8500.000000	96.378
8620.000000	96.221
8750.000000	96.250
8850.000000	96.283
9000.000000	96.570
9120.000000	96.836
9250.000000	97.179
9380.000000	97.617
9500.000000	97.945
9620.000000	98.324
9750.000000	98.460
9880.000000	98.449
10000.000000	98.162
10150.000000	97.548
10300.000000	96.600
10440.000000	95.679
10600.000000	95.017
10750.000000	94.474
10900.000000	94.246
11060.000000	94.706
11200.000000	95.341
11380.000000	96.017
11500.000000	96.306
11720.000000	96.373
11800.000000	96.340
12060.000000	96.068
12200.000000	95.908
12410.000000	95.552
12500.000000	95.433
12650.000000	95.143
12800.000000	94.986
13150.000000	94.997
13200.000000	94.993
13400.000000	95.125
13600.000000	95.322
13800.000000	95.711
14000.000000	95.572
14300.000000	92.704
14500.000000	90.106
14750.000000	87.529
15000.000000	85.678
15250.000000	83.775
15500.000000	82.051
15750.000000	80.914
16000.000000	79.975
16250.000000	79.330
16500.000000	78.155
16750.000000	77.644
17000.000000	77.643
17250.000000	78.378
17500.000000	79.182
17750.000000	79.881
18000.000000	80.848
18250.000000	81.857
18500.000000	82.662
18750.000000	83.462
19000.000000	83.814
19250.000000	84.044
19500.000000	84.252
19750.000000	83.984
20000.000000	83.376
